2023-01-05	10:57:22	Data rate [Hz]	10	
Sample Nb.	Measurement time	Voltage	Pressure	Weight
[-]	[s]	[V]	[Pa]	[g]
1.000000	0.099990	1.877079	198208.841417	0.000000
2.000000	0.199867	1.877288	198259.225366	102.600000
3.000000	0.299870	1.877706	198359.993265	102.600000
4.000000	0.399956	1.877288	198259.225366	102.620000
5.000000	0.499886	1.877288	198259.225366	0.000000
6.000000	0.599945	1.877079	198208.841417	102.650000
7.000000	0.699856	1.877288	198259.225366	102.680000
8.000000	0.799934	1.877497	198309.609315	102.730000
9.000000	0.899834	1.876765	198133.265494	102.780000
10.000000	0.999891	1.877706	198359.993265	102.840000
11.000000	1.099904	1.877183	198234.033392	102.900000
12.000000	1.199890	1.877079	198208.841417	102.950000
13.000000	1.299889	1.877602	198334.801290	102.990000
14.000000	1.399990	1.877288	198259.225366	103.030000
15.000000	1.499984	1.877079	198208.841417	103.050000
16.000000	1.599927	1.877811	198385.185239	103.080000
17.000000	1.699980	1.877392	198284.417341	103.110000
18.000000	1.799986	1.877288	198259.225366	103.120000
19.000000	1.899951	1.877915	198410.377214	103.150000
20.000000	1.999965	1.877706	198359.993265	103.160000
21.000000	2.099961	1.877811	198385.185239	103.160000
22.000000	2.199928	1.877497	198309.609315	103.160000
23.000000	2.299957	1.877497	198309.609315	103.160000
24.000000	2.399940	1.877183	198234.033392	103.170000
25.000000	2.499909	1.877706	198359.993265	103.190000
26.000000	2.599935	1.877811	198385.185239	103.220000
27.000000	2.699937	1.877706	198359.993265	103.250000
28.000000	2.799893	1.878124	198460.761163	103.290000
29.000000	2.899942	1.877602	198334.801290	103.330000
30.000000	2.999688	1.877602	198334.801290	103.360000
31.000000	3.099712	1.877183	198234.033392	103.390000
32.000000	3.199898	1.877183	198234.033392	103.390000
33.000000	3.299771	1.877602	198334.801290	103.410000
34.000000	3.399855	1.878020	198435.569188	103.420000
35.000000	3.499824	1.877706	198359.993265	103.460000
36.000000	3.599810	1.877602	198334.801290	103.490000
37.000000	3.699797	1.877602	198334.801290	103.530000
38.000000	3.799865	1.878020	198435.569188	103.590000
39.000000	3.899857	1.877706	198359.993265	103.650000
40.000000	3.999816	1.877706	198359.993265	103.700000
41.000000	4.099835	1.877811	198385.185239	103.740000
42.000000	4.199832	1.877915	198410.377214	103.770000
43.000000	4.299819	1.878020	198435.569188	103.770000
44.000000	4.399841	1.878124	198460.761163	103.780000
45.000000	4.499833	1.877915	198410.377214	103.800000
46.000000	4.599629	1.878124	198460.761163	103.820000
47.000000	4.699608	1.877602	198334.801290	103.830000
48.000000	4.799792	1.878333	198511.145112	103.850000
49.000000	4.899664	1.877706	198359.993265	103.880000
50.000000	4.999791	1.877811	198385.185239	103.900000
51.000000	5.099784	1.877602	198334.801290	103.920000
52.000000	5.199735	1.877392	198284.417341	103.950000
53.000000	5.299777	1.877915	198410.377214	103.980000
54.000000	5.399739	1.878229	198485.953137	104.010000
55.000000	5.499735	1.877602	198334.801290	104.030000
56.000000	5.599785	1.877706	198359.993265	104.060000
57.000000	5.699535	1.878124	198460.761163	104.080000
58.000000	5.799723	1.878020	198435.569188	104.100000
59.000000	5.899725	1.877915	198410.377214	104.110000
60.000000	5.999690	1.877811	198385.185239	104.130000
61.000000	6.099691	1.877706	198359.993265	104.150000
62.000000	6.199722	1.878020	198435.569188	104.170000
63.000000	6.299725	1.877706	198359.993265	104.200000
64.000000	6.399652	1.877811	198385.185239	104.220000
65.000000	6.499660	1.877602	198334.801290	104.260000
66.000000	6.599702	1.877288	198259.225366	104.300000
67.000000	6.699662	1.877915	198410.377214	104.340000
68.000000	6.799678	1.878124	198460.761163	104.390000
69.000000	6.899688	1.877497	198309.609315	104.430000
70.000000	6.999642	1.877706	198359.993265	104.480000
71.000000	7.099672	1.877392	198284.417341	104.510000
72.000000	7.199552	1.878229	198485.953137	104.540000
73.000000	7.299624	1.878020	198435.569188	104.570000
74.000000	7.399606	1.878229	198485.953137	104.590000
75.000000	7.499653	1.878124	198460.761163	104.600000
76.000000	7.599450	1.878020	198435.569188	104.620000
77.000000	7.699625	1.878229	198485.953137	104.640000
78.000000	7.799635	1.878333	198511.145112	104.670000
79.000000	7.899595	1.878020	198435.569188	104.690000
80.000000	7.999614	1.877602	198334.801290	104.720000
81.000000	8.099595	1.877602	198334.801290	104.740000
82.000000	8.199565	1.877497	198309.609315	104.740000
83.000000	8.299608	1.877392	198284.417341	104.750000
84.000000	8.399609	1.877706	198359.993265	104.780000
85.000000	8.499573	1.878020	198435.569188	104.780000
86.000000	8.599588	1.878020	198435.569188	104.800000
87.000000	8.699576	1.877706	198359.993265	104.820000
88.000000	8.799553	1.877392	198284.417341	104.850000
89.000000	8.899583	1.877288	198259.225366	104.880000
90.000000	8.999484	1.878020	198435.569188	104.920000
91.000000	9.099486	1.876974	198183.649443	104.950000
92.000000	9.199536	1.876974	198183.649443	104.980000
93.000000	9.299543	1.877602	198334.801290	105.020000
94.000000	9.399499	1.877288	198259.225366	105.050000
95.000000	9.499533	1.877392	198284.417341	105.070000
96.000000	9.599480	1.877183	198234.033392	105.110000
97.000000	9.699499	1.877602	198334.801290	105.150000
98.000000	9.799523	1.877183	198234.033392	105.180000
99.000000	9.899519	1.877183	198234.033392	105.220000
100.000000	9.999502	1.877079	198208.841417	105.250000
101.000000	10.099447	1.876974	198183.649443	105.290000
102.000000	10.199487	1.877288	198259.225366	105.310000
103.000000	10.299487	1.876765	198133.265494	105.310000
104.000000	10.399442	1.877392	198284.417341	105.310000
105.000000	10.499471	1.877183	198234.033392	105.340000
106.000000	10.599462	1.877392	198284.417341	105.350000
107.000000	10.699436	1.877288	198259.225366	105.390000
108.000000	10.799454	1.877183	198234.033392	105.410000
109.000000	10.899466	1.877288	198259.225366	105.450000
110.000000	10.999438	1.877288	198259.225366	105.480000
111.000000	11.099396	1.877079	198208.841417	105.500000
112.000000	11.199431	1.877706	198359.993265	105.500000
113.000000	11.299390	1.876765	198133.265494	105.500000
114.000000	11.399421	1.877183	198234.033392	105.540000
115.000000	11.499428	1.876870	198158.457468	105.560000
116.000000	11.599476	1.877392	198284.417341	105.610000
117.000000	11.699406	1.876870	198158.457468	105.650000
118.000000	11.799302	1.877183	198234.033392	105.690000
119.000000	11.899489	1.877079	198208.841417	105.740000
120.000000	11.999416	1.877497	198309.609315	105.780000
121.000000	12.099374	1.877915	198410.377214	105.810000
122.000000	12.199323	1.878020	198435.569188	105.820000
123.000000	12.299195	1.878020	198435.569188	105.830000
124.000000	12.399370	1.877602	198334.801290	105.830000
125.000000	12.499459	1.877497	198309.609315	105.860000
126.000000	12.599363	1.877706	198359.993265	105.870000
127.000000	12.699316	1.876765	198133.265494	105.880000
128.000000	12.799203	1.877392	198284.417341	105.920000
129.000000	12.899196	1.877288	198259.225366	105.960000
130.000000	12.999369	1.877392	198284.417341	106.000000
131.000000	13.099324	1.877392	198284.417341	106.030000
132.000000	13.199361	1.878229	198485.953137	106.060000
133.000000	13.299400	1.877183	198234.033392	106.080000
134.000000	13.399164	1.877497	198309.609315	106.100000
135.000000	13.499215	1.877602	198334.801290	106.120000
136.000000	13.599236	1.877288	198259.225366	106.150000
137.000000	13.699260	1.877183	198234.033392	106.190000
138.000000	13.799337	1.877811	198385.185239	106.210000
139.000000	13.899105	1.878124	198460.761163	106.240000
140.000000	13.999072	1.877602	198334.801290	106.270000
141.000000	14.099090	1.877706	198359.993265	106.300000
142.000000	14.199063	1.877183	198234.033392	106.340000
143.000000	14.299104	1.877288	198259.225366	106.360000
144.000000	14.399110	1.877915	198410.377214	106.390000
145.000000	14.499191	1.877811	198385.185239	106.410000
146.000000	14.599343	1.877915	198410.377214	106.430000
147.000000	14.699305	1.877706	198359.993265	106.440000
148.000000	14.799307	1.877183	198234.033392	106.470000
149.000000	14.899263	1.877602	198334.801290	106.490000
150.000000	14.999173	1.878438	198536.337086	106.510000
151.000000	15.099192	1.877915	198410.377214	106.540000
152.000000	15.199167	1.878542	198561.529061	106.560000
153.000000	15.299204	1.878124	198460.761163	106.580000
154.000000	15.399215	1.877392	198284.417341	106.590000
155.000000	15.499137	1.878020	198435.569188	106.620000
156.000000	15.599185	1.878124	198460.761163	106.640000
157.000000	15.699125	1.877811	198385.185239	106.680000
158.000000	15.799139	1.877497	198309.609315	106.720000
159.000000	15.899159	1.877392	198284.417341	106.770000
160.000000	15.999166	1.877288	198259.225366	106.810000
161.000000	16.099132	1.877811	198385.185239	106.830000
162.000000	16.199139	1.877706	198359.993265	106.860000
163.000000	16.299139	1.878020	198435.569188	106.880000
164.000000	16.399103	1.878542	198561.529061	106.910000
165.000000	16.499126	1.877602	198334.801290	106.930000
166.000000	16.599100	1.877915	198410.377214	106.960000
167.000000	16.699101	1.878124	198460.761163	106.970000
168.000000	16.799117	1.878020	198435.569188	107.000000
169.000000	16.899065	1.877915	198410.377214	107.030000
170.000000	16.998926	1.877602	198334.801290	107.060000
171.000000	17.099089	1.877288	198259.225366	107.080000
172.000000	17.199077	1.877915	198410.377214	107.090000
173.000000	17.299049	1.877811	198385.185239	107.110000
174.000000	17.399060	1.877915	198410.377214	107.130000
175.000000	17.499065	1.877915	198410.377214	107.150000
176.000000	17.599042	1.877602	198334.801290	107.170000
177.000000	17.699056	1.877706	198359.993265	107.200000
178.000000	17.799070	1.877915	198410.377214	107.240000
179.000000	17.899007	1.877392	198284.417341	107.270000
180.000000	17.998960	1.877079	198208.841417	107.300000
181.000000	18.099049	1.877915	198410.377214	107.330000
182.000000	18.198985	1.877392	198284.417341	107.350000
183.000000	18.299033	1.878020	198435.569188	107.370000
184.000000	18.399028	1.877392	198284.417341	107.390000
185.000000	18.499003	1.877602	198334.801290	107.410000
186.000000	18.598958	1.877288	198259.225366	107.440000
187.000000	18.698954	1.877706	198359.993265	107.480000
188.000000	18.798950	1.877915	198410.377214	107.530000
189.000000	18.898987	1.878333	198511.145112	107.570000
190.000000	18.998995	1.877392	198284.417341	107.590000
191.000000	19.098970	1.878020	198435.569188	107.620000
192.000000	19.198989	1.876974	198183.649443	107.630000
193.000000	19.298975	1.877183	198234.033392	107.650000
194.000000	19.398939	1.877079	198208.841417	107.680000
195.000000	19.498960	1.877392	198284.417341	107.710000
196.000000	19.598968	1.877183	198234.033392	107.750000
197.000000	19.698941	1.877706	198359.993265	107.780000
198.000000	19.798910	1.877183	198234.033392	107.820000
199.000000	19.898937	1.876765	198133.265494	107.840000
200.000000	19.998956	1.877602	198334.801290	107.860000
201.000000	20.098933	1.877288	198259.225366	107.880000
202.000000	20.198926	1.877602	198334.801290	107.900000
203.000000	20.298902	1.877497	198309.609315	107.920000
204.000000	20.398907	1.876974	198183.649443	107.950000
205.000000	20.498946	1.877183	198234.033392	107.970000
206.000000	20.598880	1.877392	198284.417341	108.000000
207.000000	20.698890	1.877079	198208.841417	108.030000
208.000000	20.798897	1.877183	198234.033392	108.060000
209.000000	20.898844	1.876870	198158.457468	108.080000
210.000000	20.998805	1.877602	198334.801290	108.090000
211.000000	21.098864	1.877288	198259.225366	108.090000
212.000000	21.198833	1.877079	198208.841417	108.090000
213.000000	21.298811	1.877706	198359.993265	108.090000
214.000000	21.398834	1.876870	198158.457468	108.090000
215.000000	21.498809	1.877288	198259.225366	108.120000
216.000000	21.598836	1.876974	198183.649443	108.150000
217.000000	21.698830	1.877602	198334.801290	108.200000
218.000000	21.798810	1.877392	198284.417341	108.260000
219.000000	21.898821	1.877497	198309.609315	108.330000
220.000000	21.998836	1.877183	198234.033392	108.390000
221.000000	22.098899	1.877183	198234.033392	108.440000
222.000000	22.198798	1.876556	198082.881545	108.480000
223.000000	22.298792	1.876870	198158.457468	108.510000
224.000000	22.398769	1.877288	198259.225366	108.530000
225.000000	22.498735	1.877811	198385.185239	108.540000
226.000000	22.598798	1.877288	198259.225366	108.570000
227.000000	22.698760	1.877079	198208.841417	108.590000
228.000000	22.798770	1.877183	198234.033392	108.620000
229.000000	22.898781	1.877392	198284.417341	108.640000
230.000000	22.998751	1.877602	198334.801290	108.670000
231.000000	23.098768	1.877288	198259.225366	108.680000
232.000000	23.198754	1.876974	198183.649443	108.690000
233.000000	23.298716	1.877392	198284.417341	108.700000
234.000000	23.398742	1.877392	198284.417341	108.710000
235.000000	23.498680	1.877392	198284.417341	108.730000
236.000000	23.598712	1.877706	198359.993265	108.750000
237.000000	23.698736	1.877811	198385.185239	108.770000
238.000000	23.798725	1.877602	198334.801290	108.800000
239.000000	23.898677	1.877497	198309.609315	108.820000
240.000000	23.998619	1.877497	198309.609315	108.830000
241.000000	24.098703	1.878229	198485.953137	108.830000
242.000000	24.198594	1.877288	198259.225366	108.860000
243.000000	24.298708	1.877915	198410.377214	108.870000
244.000000	24.398696	1.877706	198359.993265	108.900000
245.000000	24.498651	1.877288	198259.225366	108.930000
246.000000	24.598677	1.878020	198435.569188	108.990000
247.000000	24.698685	1.877288	198259.225366	109.060000
248.000000	24.798643	1.877392	198284.417341	109.130000
249.000000	24.898640	1.877497	198309.609315	109.190000
250.000000	24.998640	1.878124	198460.761163	109.240000
251.000000	25.098613	1.877602	198334.801290	109.270000
252.000000	25.198591	1.877288	198259.225366	109.280000
253.000000	25.298585	1.878124	198460.761163	109.280000
254.000000	25.398603	1.877915	198410.377214	109.280000
255.000000	25.498577	1.878020	198435.569188	109.290000
256.000000	25.598572	1.877706	198359.993265	109.310000
257.000000	25.698592	1.877602	198334.801290	109.330000
258.000000	25.798603	1.877392	198284.417341	109.360000
259.000000	25.898576	1.877811	198385.185239	109.390000
260.000000	25.998509	1.878542	198561.529061	109.420000
261.000000	26.098592	1.878124	198460.761163	109.440000
262.000000	26.198565	1.878333	198511.145112	109.440000
263.000000	26.298580	1.877392	198284.417341	109.470000
264.000000	26.398575	1.877811	198385.185239	109.480000
265.000000	26.498563	1.877706	198359.993265	109.500000
266.000000	26.598507	1.877497	198309.609315	109.530000
267.000000	26.698632	1.878124	198460.761163	109.550000
268.000000	26.798547	1.877915	198410.377214	109.580000
269.000000	26.898473	1.877915	198410.377214	109.610000
270.000000	26.998495	1.878020	198435.569188	109.630000
271.000000	27.098521	1.877392	198284.417341	109.650000
272.000000	27.198497	1.877706	198359.993265	109.670000
273.000000	27.298511	1.877288	198259.225366	109.710000
274.000000	27.398525	1.877288	198259.225366	109.760000
275.000000	27.498459	1.877497	198309.609315	109.810000
276.000000	27.598516	1.877288	198259.225366	109.860000
277.000000	27.698485	1.877706	198359.993265	109.910000
278.000000	27.798486	1.877811	198385.185239	109.940000
279.000000	27.898491	1.877602	198334.801290	109.960000
280.000000	27.998481	1.877392	198284.417341	109.980000
281.000000	28.098440	1.877079	198208.841417	109.990000
282.000000	28.198414	1.877183	198234.033392	110.000000
283.000000	28.298451	1.877497	198309.609315	110.020000
284.000000	28.398423	1.877602	198334.801290	110.030000
285.000000	28.498402	1.877392	198284.417341	110.060000
286.000000	28.598484	1.876870	198158.457468	110.100000
287.000000	28.698423	1.877497	198309.609315	110.130000
288.000000	28.798435	1.876765	198133.265494	110.160000
289.000000	28.898424	1.877392	198284.417341	110.190000
290.000000	28.998401	1.877706	198359.993265	110.220000
291.000000	29.098420	1.876974	198183.649443	110.230000
292.000000	29.198423	1.877288	198259.225366	110.250000
293.000000	29.298371	1.877288	198259.225366	110.260000
294.000000	29.398397	1.877602	198334.801290	110.280000
295.000000	29.498390	1.877183	198234.033392	110.280000
296.000000	29.598335	1.876870	198158.457468	110.290000
297.000000	29.698373	1.877288	198259.225366	110.300000
298.000000	29.798325	1.877288	198259.225366	110.330000
299.000000	29.898338	1.877497	198309.609315	110.350000
300.000000	29.998341	1.877392	198284.417341	110.390000
301.000000	30.098312	1.877497	198309.609315	110.440000
302.000000	30.198312	1.877392	198284.417341	110.490000
303.000000	30.298208	1.876870	198158.457468	110.540000
304.000000	30.398333	1.877602	198334.801290	110.590000
305.000000	30.498313	1.877392	198284.417341	110.630000
306.000000	30.598328	1.876974	198183.649443	110.660000
307.000000	30.698288	1.877183	198234.033392	110.700000
308.000000	30.798284	1.877079	198208.841417	110.720000
309.000000	30.898313	1.877079	198208.841417	110.730000
310.000000	30.998295	1.876974	198183.649443	110.740000
311.000000	31.098271	1.877288	198259.225366	110.770000
312.000000	31.198281	1.877288	198259.225366	110.780000
313.000000	31.298284	1.877183	198234.033392	110.820000
314.000000	31.398236	1.876974	198183.649443	110.860000
315.000000	31.498268	1.877497	198309.609315	110.890000
316.000000	31.598246	1.877079	198208.841417	110.920000
317.000000	31.698188	1.877183	198234.033392	110.920000
318.000000	31.798233	1.877183	198234.033392	110.920000
319.000000	31.898212	1.877602	198334.801290	110.920000
320.000000	31.998240	1.877183	198234.033392	110.930000
321.000000	32.098277	1.876765	198133.265494	110.950000
322.000000	32.198272	1.877079	198208.841417	110.970000
323.000000	32.298225	1.877602	198334.801290	110.990000
324.000000	32.398219	1.877497	198309.609315	111.020000
325.000000	32.498139	1.877392	198284.417341	111.050000
326.000000	32.598166	1.877392	198284.417341	111.090000
327.000000	32.698279	1.877183	198234.033392	111.130000
328.000000	32.798203	1.877497	198309.609315	111.170000
329.000000	32.898144	1.876974	198183.649443	111.210000
330.000000	32.998055	1.877392	198284.417341	111.240000
331.000000	33.098082	1.877706	198359.993265	111.280000
332.000000	33.198008	1.877497	198309.609315	111.330000
333.000000	33.298050	1.877497	198309.609315	111.370000
334.000000	33.398018	1.877497	198309.609315	111.410000
335.000000	33.498140	1.877183	198234.033392	111.450000
336.000000	33.598203	1.877288	198259.225366	111.460000
337.000000	33.698257	1.877602	198334.801290	111.470000
338.000000	33.798217	1.877706	198359.993265	111.470000
339.000000	33.898261	1.878124	198460.761163	111.470000
340.000000	33.998253	1.877392	198284.417341	111.500000
341.000000	34.098104	1.877497	198309.609315	111.520000
342.000000	34.198125	1.877497	198309.609315	111.550000
343.000000	34.298110	1.877706	198359.993265	111.580000
344.000000	34.398096	1.877915	198410.377214	111.610000
345.000000	34.498097	1.877497	198309.609315	111.640000
346.000000	34.597923	1.877183	198234.033392	111.640000
347.000000	34.698081	1.877915	198410.377214	111.640000
348.000000	34.798097	1.877288	198259.225366	111.650000
349.000000	34.898049	1.877706	198359.993265	111.680000
350.000000	34.998014	1.878124	198460.761163	111.690000
351.000000	35.098089	1.877915	198410.377214	111.720000
352.000000	35.198090	1.877183	198234.033392	111.770000
353.000000	35.298033	1.877392	198284.417341	111.820000
354.000000	35.398067	1.877706	198359.993265	111.870000
355.000000	35.497992	1.877497	198309.609315	111.910000
356.000000	35.598017	1.876974	198183.649443	111.950000
357.000000	35.697926	1.877079	198208.841417	111.970000
358.000000	35.798027	1.877706	198359.993265	111.990000
359.000000	35.897983	1.877392	198284.417341	112.020000
360.000000	35.997980	1.877706	198359.993265	112.050000
361.000000	36.098030	1.877602	198334.801290	112.080000
362.000000	36.198005	1.877915	198410.377214	112.110000
363.000000	36.298017	1.877602	198334.801290	112.140000
364.000000	36.398010	1.877079	198208.841417	112.150000
365.000000	36.497971	1.877288	198259.225366	112.180000
366.000000	36.598094	1.877602	198334.801290	112.190000
367.000000	36.697988	1.877602	198334.801290	112.200000
368.000000	36.797958	1.877497	198309.609315	112.230000
369.000000	36.897976	1.877706	198359.993265	112.250000
370.000000	36.997972	1.877706	198359.993265	112.280000
371.000000	37.097928	1.877706	198359.993265	112.310000
372.000000	37.197965	1.877811	198385.185239	112.340000
373.000000	37.297953	1.877497	198309.609315	112.360000
374.000000	37.397910	1.877183	198234.033392	112.380000
375.000000	37.497837	1.877602	198334.801290	112.400000
376.000000	37.597933	1.876974	198183.649443	112.420000
377.000000	37.697899	1.877392	198284.417341	112.430000
378.000000	37.797916	1.876974	198183.649443	112.470000
379.000000	37.897928	1.877602	198334.801290	112.500000
380.000000	37.997887	1.876974	198183.649443	112.540000
381.000000	38.097942	1.876974	198183.649443	112.570000
382.000000	38.197900	1.877079	198208.841417	112.610000
383.000000	38.297847	1.877497	198309.609315	112.620000
384.000000	38.397831	1.876765	198133.265494	112.650000
385.000000	38.497934	1.877497	198309.609315	112.660000
386.000000	38.597818	1.877288	198259.225366	112.680000
387.000000	38.697867	1.877497	198309.609315	112.700000
388.000000	38.797873	1.877183	198234.033392	112.730000
389.000000	38.897826	1.877392	198284.417341	112.770000
390.000000	38.997844	1.876974	198183.649443	112.810000
391.000000	39.097794	1.877392	198284.417341	112.850000
392.000000	39.197812	1.876870	198158.457468	112.880000
393.000000	39.297749	1.876870	198158.457468	112.900000
394.000000	39.397856	1.877079	198208.841417	112.930000
395.000000	39.497816	1.877079	198208.841417	112.940000
396.000000	39.597773	1.876974	198183.649443	112.970000
397.000000	39.697825	1.877079	198208.841417	112.990000
398.000000	39.797784	1.876870	198158.457468	113.020000
399.000000	39.897807	1.877392	198284.417341	113.060000
400.000000	39.997796	1.876765	198133.265494	113.090000
401.000000	40.097750	1.876556	198082.881545	113.100000
402.000000	40.197767	1.876556	198082.881545	113.110000
403.000000	40.297767	1.876974	198183.649443	113.130000
404.000000	40.397734	1.877183	198234.033392	113.150000
405.000000	40.497751	1.876870	198158.457468	113.170000
406.000000	40.597750	1.876661	198108.073519	113.180000
407.000000	40.697725	1.877079	198208.841417	113.210000
408.000000	40.797751	1.877183	198234.033392	113.240000
409.000000	40.897748	1.877183	198234.033392	113.270000
410.000000	40.997716	1.876870	198158.457468	113.310000
411.000000	41.097743	1.877183	198234.033392	113.350000
412.000000	41.197706	1.876870	198158.457468	113.380000
413.000000	41.297685	1.876556	198082.881545	113.400000
414.000000	41.397712	1.877288	198259.225366	113.420000
415.000000	41.497713	1.877183	198234.033392	113.430000
416.000000	41.597659	1.876661	198108.073519	113.440000
417.000000	41.697698	1.876974	198183.649443	113.460000
418.000000	41.797698	1.876974	198183.649443	113.500000
419.000000	41.897654	1.877079	198208.841417	113.540000
420.000000	41.997581	1.877497	198309.609315	113.590000
421.000000	42.097674	1.877706	198359.993265	113.640000
422.000000	42.197631	1.876765	198133.265494	113.680000
423.000000	42.297665	1.877079	198208.841417	113.700000
424.000000	42.397651	1.877079	198208.841417	113.720000
425.000000	42.497619	1.876974	198183.649443	113.730000
426.000000	42.597633	1.876870	198158.457468	113.730000
427.000000	42.697628	1.876974	198183.649443	113.740000
428.000000	42.797590	1.877288	198259.225366	113.760000
429.000000	42.897637	1.877497	198309.609315	113.780000
430.000000	42.997531	1.876765	198133.265494	113.810000
431.000000	43.097632	1.877183	198234.033392	113.840000
432.000000	43.197608	1.876765	198133.265494	113.880000
433.000000	43.297562	1.877079	198208.841417	113.920000
434.000000	43.397581	1.877811	198385.185239	113.950000
435.000000	43.497548	1.877288	198259.225366	113.960000
436.000000	43.597487	1.877183	198234.033392	113.990000
437.000000	43.697655	1.877392	198284.417341	114.010000
438.000000	43.797566	1.877497	198309.609315	114.050000
439.000000	43.897572	1.877079	198208.841417	114.080000
440.000000	43.997528	1.877602	198334.801290	114.120000
441.000000	44.097569	1.876974	198183.649443	114.150000
442.000000	44.197565	1.877811	198385.185239	114.170000
443.000000	44.297511	1.877915	198410.377214	114.180000
444.000000	44.397496	1.877706	198359.993265	114.180000
445.000000	44.497473	1.876974	198183.649443	114.190000
446.000000	44.597512	1.876661	198108.073519	114.210000
447.000000	44.697527	1.877497	198309.609315	114.240000
448.000000	44.797532	1.877392	198284.417341	114.270000
449.000000	44.897394	1.877183	198234.033392	114.310000
450.000000	44.997471	1.877706	198359.993265	114.350000
451.000000	45.097502	1.877497	198309.609315	114.390000
452.000000	45.197441	1.877602	198334.801290	114.420000
453.000000	45.297499	1.878020	198435.569188	114.450000
454.000000	45.397506	1.877915	198410.377214	114.470000
455.000000	45.497444	1.877497	198309.609315	114.470000
456.000000	45.597473	1.878020	198435.569188	114.480000
457.000000	45.697478	1.877497	198309.609315	114.510000
458.000000	45.797441	1.876765	198133.265494	114.540000
459.000000	45.897470	1.877497	198309.609315	114.580000
460.000000	45.997455	1.877392	198284.417341	114.630000
461.000000	46.097427	1.877288	198259.225366	114.670000
462.000000	46.197448	1.877079	198208.841417	114.710000
463.000000	46.297428	1.877602	198334.801290	114.740000
464.000000	46.397428	1.877288	198259.225366	114.760000
465.000000	46.497389	1.877079	198208.841417	114.780000
466.000000	46.597389	1.877392	198284.417341	114.800000
467.000000	46.697386	1.876974	198183.649443	114.820000
468.000000	46.797401	1.876661	198108.073519	114.850000
469.000000	46.897403	1.877497	198309.609315	114.850000
470.000000	46.997471	1.877392	198284.417341	114.860000
471.000000	47.097343	1.876974	198183.649443	114.870000
472.000000	47.197331	1.877392	198284.417341	114.870000
473.000000	47.297398	1.877497	198309.609315	114.900000
474.000000	47.397322	1.877392	198284.417341	114.910000
475.000000	47.497359	1.877497	198309.609315	114.940000
476.000000	47.597335	1.877183	198234.033392	114.980000
477.000000	47.697339	1.877288	198259.225366	115.020000
478.000000	47.797344	1.877079	198208.841417	115.070000
479.000000	47.897180	1.877602	198334.801290	115.130000
480.000000	47.997289	1.877288	198259.225366	115.170000
481.000000	48.097318	1.877183	198234.033392	115.200000
482.000000	48.197286	1.877183	198234.033392	115.220000
483.000000	48.297253	1.877183	198234.033392	115.220000
484.000000	48.397261	1.877288	198259.225366	115.250000
485.000000	48.497309	1.877183	198234.033392	115.270000
486.000000	48.597316	1.877183	198234.033392	115.300000
487.000000	48.697302	1.877392	198284.417341	115.330000
488.000000	48.797267	1.876765	198133.265494	115.370000
489.000000	48.897262	1.876765	198133.265494	115.400000
490.000000	48.997293	1.876974	198183.649443	115.440000
491.000000	49.097261	1.876765	198133.265494	115.460000
492.000000	49.197278	1.877079	198208.841417	115.480000
493.000000	49.297255	1.876974	198183.649443	115.490000
494.000000	49.397239	1.876765	198133.265494	115.500000
495.000000	49.497229	1.876661	198108.073519	115.520000
496.000000	49.597198	1.877079	198208.841417	115.530000
497.000000	49.697232	1.876765	198133.265494	115.560000
498.000000	49.797258	1.877079	198208.841417	115.570000
499.000000	49.897258	1.876556	198082.881545	115.600000
500.000000	49.997198	1.876556	198082.881545	115.620000
501.000000	50.097215	1.876556	198082.881545	115.650000
502.000000	50.197287	1.877497	198309.609315	115.680000
503.000000	50.297143	1.877392	198284.417341	115.720000
504.000000	50.397172	1.877079	198208.841417	115.760000
505.000000	50.497187	1.877288	198259.225366	115.790000
506.000000	50.597156	1.876974	198183.649443	115.830000
507.000000	50.697152	1.876556	198082.881545	115.860000
508.000000	50.797201	1.876974	198183.649443	115.900000
509.000000	50.897068	1.876661	198108.073519	115.930000
510.000000	50.997124	1.877392	198284.417341	115.960000
511.000000	51.097227	1.876870	198158.457468	115.980000
512.000000	51.197223	1.877183	198234.033392	115.980000
513.000000	51.297094	1.876870	198158.457468	116.000000
514.000000	51.397171	1.876870	198158.457468	116.010000
515.000000	51.497118	1.877392	198284.417341	116.030000
516.000000	51.597067	1.876556	198082.881545	116.060000
517.000000	51.697118	1.877497	198309.609315	116.090000
518.000000	51.797071	1.877183	198234.033392	116.110000
519.000000	51.897056	1.877288	198259.225366	116.150000
520.000000	51.996958	1.877288	198259.225366	116.180000
521.000000	52.096940	1.876765	198133.265494	116.230000
522.000000	52.196914	1.877288	198259.225366	116.270000
523.000000	52.296913	1.877288	198259.225366	116.300000
524.000000	52.396938	1.877288	198259.225366	116.320000
525.000000	52.497034	1.877079	198208.841417	116.330000
526.000000	52.597032	1.876870	198158.457468	116.330000
527.000000	52.697128	1.877288	198259.225366	116.340000
528.000000	52.797171	1.877183	198234.033392	116.350000
529.000000	52.897150	1.877183	198234.033392	116.370000
530.000000	52.997140	1.877288	198259.225366	116.390000
531.000000	53.097053	1.877602	198334.801290	116.410000
532.000000	53.196968	1.877183	198234.033392	116.440000
533.000000	53.296972	1.876765	198133.265494	116.480000
534.000000	53.396974	1.876870	198158.457468	116.520000
535.000000	53.496951	1.876974	198183.649443	116.570000
536.000000	53.596955	1.876974	198183.649443	116.600000
537.000000	53.696950	1.876765	198133.265494	116.620000
538.000000	53.796926	1.877602	198334.801290	116.640000
539.000000	53.896947	1.877079	198208.841417	116.660000
540.000000	53.996883	1.877392	198284.417341	116.680000
541.000000	54.096927	1.877288	198259.225366	116.710000
542.000000	54.196899	1.877497	198309.609315	116.740000
543.000000	54.296901	1.877288	198259.225366	116.780000
544.000000	54.396941	1.877392	198284.417341	116.820000
545.000000	54.496888	1.877183	198234.033392	116.860000
546.000000	54.596905	1.877392	198284.417341	116.890000
547.000000	54.696865	1.876765	198133.265494	116.920000
548.000000	54.796891	1.877497	198309.609315	116.940000
549.000000	54.896892	1.877079	198208.841417	116.960000
550.000000	54.996839	1.877497	198309.609315	116.990000
551.000000	55.096893	1.877392	198284.417341	117.010000
552.000000	55.196852	1.877497	198309.609315	117.030000
553.000000	55.296833	1.877811	198385.185239	117.050000
554.000000	55.396840	1.877288	198259.225366	117.060000
555.000000	55.496746	1.877915	198410.377214	117.070000
556.000000	55.596838	1.877392	198284.417341	117.080000
557.000000	55.696819	1.877602	198334.801290	117.090000
558.000000	55.796860	1.877288	198259.225366	117.100000
559.000000	55.896818	1.877706	198359.993265	117.120000
560.000000	55.996816	1.877706	198359.993265	117.130000
561.000000	56.096796	1.877706	198359.993265	117.160000
562.000000	56.196834	1.877497	198309.609315	117.190000
563.000000	56.296670	1.877183	198234.033392	117.240000
564.000000	56.396799	1.877706	198359.993265	117.290000
565.000000	56.496769	1.877706	198359.993265	117.340000
566.000000	56.596774	1.877602	198334.801290	117.380000
567.000000	56.696802	1.877288	198259.225366	117.420000
568.000000	56.796840	1.876765	198133.265494	117.450000
569.000000	56.896755	1.877602	198334.801290	117.490000
570.000000	56.996822	1.877392	198284.417341	117.520000
571.000000	57.096765	1.877183	198234.033392	117.560000
572.000000	57.196769	1.877602	198334.801290	117.590000
573.000000	57.296806	1.877183	198234.033392	117.590000
574.000000	57.396753	1.877392	198284.417341	117.590000
575.000000	57.496760	1.876870	198158.457468	117.620000
576.000000	57.596830	1.877288	198259.225366	117.640000
577.000000	57.696796	1.877392	198284.417341	117.660000
578.000000	57.796865	1.876870	198158.457468	117.700000
579.000000	57.896792	1.877392	198284.417341	117.730000
580.000000	57.996780	1.876974	198183.649443	117.760000
581.000000	58.096741	1.877392	198284.417341	117.780000
582.000000	58.196767	1.876870	198158.457468	117.780000
583.000000	58.296678	1.876765	198133.265494	117.780000
584.000000	58.396720	1.877079	198208.841417	117.780000
585.000000	58.496765	1.876556	198082.881545	117.810000
586.000000	58.596765	1.876870	198158.457468	117.830000
587.000000	58.696719	1.877392	198284.417341	117.850000
588.000000	58.796679	1.876765	198133.265494	117.880000
589.000000	58.896669	1.876661	198108.073519	117.920000
590.000000	58.996682	1.876765	198133.265494	117.960000
591.000000	59.096703	1.876452	198057.689570	118.010000
592.000000	59.196716	1.877392	198284.417341	118.050000
593.000000	59.296650	1.876765	198133.265494	118.090000
594.000000	59.396696	1.876870	198158.457468	118.120000
595.000000	59.496672	1.877079	198208.841417	118.150000
596.000000	59.596701	1.876556	198082.881545	118.170000
597.000000	59.696668	1.876870	198158.457468	118.200000
598.000000	59.796687	1.876974	198183.649443	118.230000
599.000000	59.896648	1.876556	198082.881545	118.270000
600.000000	59.996614	1.876452	198057.689570	118.310000
601.000000	60.096655	1.876452	198057.689570	118.340000
602.000000	60.196614	1.876974	198183.649443	118.350000
603.000000	60.296653	1.876870	198158.457468	118.350000
604.000000	60.396635	1.876347	198032.497596	118.360000
605.000000	60.496587	1.876556	198082.881545	118.380000
606.000000	60.596623	1.876556	198082.881545	118.400000
607.000000	60.696627	1.876765	198133.265494	118.430000
608.000000	60.796515	1.876765	198133.265494	118.460000
609.000000	60.896659	1.876870	198158.457468	118.500000
610.000000	60.996592	1.876452	198057.689570	118.530000
611.000000	61.096547	1.876661	198108.073519	118.560000
612.000000	61.196544	1.877183	198234.033392	118.590000
613.000000	61.296589	1.876974	198183.649443	118.590000
614.000000	61.396536	1.876661	198108.073519	118.600000
615.000000	61.496582	1.876347	198032.497596	118.610000
616.000000	61.596571	1.876870	198158.457468	118.610000
617.000000	61.696543	1.876765	198133.265494	118.610000
618.000000	61.796564	1.876765	198133.265494	118.620000
619.000000	61.896558	1.876765	198133.265494	118.650000
620.000000	61.996504	1.876138	197982.113646	118.690000
621.000000	62.096520	1.876974	198183.649443	118.760000
622.000000	62.196499	1.876765	198133.265494	118.820000
623.000000	62.296494	1.876661	198108.073519	118.890000
624.000000	62.396519	1.876870	198158.457468	118.940000
625.000000	62.496410	1.876556	198082.881545	118.970000
626.000000	62.596467	1.876661	198108.073519	118.990000
627.000000	62.696503	1.876243	198007.305621	119.000000
628.000000	62.796495	1.877183	198234.033392	119.020000
629.000000	62.896461	1.876870	198158.457468	119.040000
630.000000	62.996463	1.876870	198158.457468	119.070000
631.000000	63.096468	1.876974	198183.649443	119.110000
632.000000	63.196444	1.877288	198259.225366	119.140000
633.000000	63.296464	1.876974	198183.649443	119.180000
634.000000	63.396460	1.877183	198234.033392	119.200000
635.000000	63.496291	1.876974	198183.649443	119.230000
636.000000	63.596405	1.876974	198183.649443	119.230000
637.000000	63.696443	1.876974	198183.649443	119.230000
638.000000	63.796383	1.876870	198158.457468	119.240000
639.000000	63.896422	1.877183	198234.033392	119.240000
640.000000	63.996381	1.876974	198183.649443	119.270000
641.000000	64.096391	1.876661	198108.073519	119.290000
642.000000	64.196402	1.876452	198057.689570	119.300000
643.000000	64.296410	1.876974	198183.649443	119.330000
644.000000	64.396431	1.876661	198108.073519	119.360000
645.000000	64.496383	1.876974	198183.649443	119.370000
646.000000	64.596398	1.877079	198208.841417	119.370000
647.000000	64.696366	1.877183	198234.033392	119.400000
648.000000	64.796447	1.876765	198133.265494	119.430000
649.000000	64.896384	1.876974	198183.649443	119.480000
650.000000	64.996347	1.876974	198183.649443	119.540000
651.000000	65.096356	1.876974	198183.649443	119.610000
652.000000	65.196312	1.876974	198183.649443	119.670000
653.000000	65.296323	1.877288	198259.225366	119.730000
654.000000	65.396341	1.877392	198284.417341	119.770000
655.000000	65.496199	1.877392	198284.417341	119.800000
656.000000	65.596301	1.877497	198309.609315	119.810000
657.000000	65.696332	1.876870	198158.457468	119.810000
658.000000	65.796357	1.877706	198359.993265	119.810000
659.000000	65.896240	1.877079	198208.841417	119.810000
660.000000	65.996271	1.877602	198334.801290	119.810000
661.000000	66.096302	1.877079	198208.841417	119.810000
662.000000	66.196279	1.876661	198108.073519	119.850000
663.000000	66.296300	1.877706	198359.993265	119.880000
664.000000	66.396281	1.877497	198309.609315	119.910000
665.000000	66.496259	1.877183	198234.033392	119.950000
666.000000	66.596260	1.877079	198208.841417	119.980000
667.000000	66.696333	1.876661	198108.073519	119.990000
668.000000	66.796196	1.877183	198234.033392	119.990000
669.000000	66.896226	1.877392	198284.417341	119.990000
670.000000	66.996252	1.877079	198208.841417	120.020000
671.000000	67.096217	1.877183	198234.033392	120.040000
672.000000	67.196196	1.877183	198234.033392	120.050000
673.000000	67.296239	1.876870	198158.457468	120.080000
674.000000	67.396193	1.877392	198284.417341	120.110000
675.000000	67.496223	1.877811	198385.185239	120.150000
676.000000	67.596211	1.877079	198208.841417	120.190000
677.000000	67.696165	1.877079	198208.841417	120.240000
678.000000	67.796207	1.876870	198158.457468	120.290000
679.000000	67.896220	1.876870	198158.457468	120.350000
680.000000	67.996143	1.876661	198108.073519	120.400000
681.000000	68.096194	1.876974	198183.649443	120.440000
682.000000	68.196191	1.877079	198208.841417	120.450000
683.000000	68.296151	1.876870	198158.457468	120.470000
684.000000	68.396140	1.876765	198133.265494	120.490000
685.000000	68.496153	1.876974	198183.649443	120.500000
686.000000	68.596092	1.877288	198259.225366	120.520000
687.000000	68.696153	1.876765	198133.265494	120.550000
688.000000	68.796151	1.876974	198183.649443	120.550000
689.000000	68.896116	1.877183	198234.033392	120.560000
690.000000	68.996121	1.876870	198158.457468	120.560000
691.000000	69.096090	1.876556	198082.881545	120.590000
692.000000	69.196090	1.876870	198158.457468	120.620000
693.000000	69.296120	1.877079	198208.841417	120.640000
694.000000	69.396110	1.876661	198108.073519	120.680000
695.000000	69.496202	1.876556	198082.881545	120.720000
696.000000	69.596085	1.876974	198183.649443	120.760000
697.000000	69.696080	1.876765	198133.265494	120.790000
698.000000	69.795964	1.876870	198158.457468	120.810000
699.000000	69.896171	1.876661	198108.073519	120.810000
700.000000	69.996080	1.876974	198183.649443	120.820000
701.000000	70.096115	1.876556	198082.881545	120.820000
702.000000	70.195937	1.876556	198082.881545	120.830000
703.000000	70.296112	1.876661	198108.073519	120.830000
704.000000	70.395932	1.877079	198208.841417	120.860000
705.000000	70.496054	1.876870	198158.457468	120.880000
706.000000	70.596014	1.876661	198108.073519	120.940000
707.000000	70.696006	1.876765	198133.265494	121.000000
708.000000	70.796025	1.876452	198057.689570	121.070000
709.000000	70.895964	1.876556	198082.881545	121.140000
710.000000	70.996009	1.876556	198082.881545	121.190000
711.000000	71.095857	1.876347	198032.497596	121.210000
712.000000	71.195914	1.876556	198082.881545	121.220000
713.000000	71.295817	1.876870	198158.457468	121.240000
714.000000	71.395810	1.876347	198032.497596	121.250000
715.000000	71.495897	1.876661	198108.073519	121.270000
716.000000	71.596083	1.876661	198108.073519	121.290000
717.000000	71.696050	1.876556	198082.881545	121.310000
718.000000	71.796059	1.876452	198057.689570	121.340000
719.000000	71.896068	1.876452	198057.689570	121.370000
720.000000	71.996037	1.876765	198133.265494	121.390000
721.000000	72.095961	1.876556	198082.881545	121.410000
722.000000	72.195897	1.876661	198108.073519	121.440000
723.000000	72.295933	1.876870	198158.457468	121.440000
724.000000	72.395885	1.875929	197931.729697	121.450000
725.000000	72.495864	1.876974	198183.649443	121.460000
726.000000	72.595895	1.876661	198108.073519	121.480000
727.000000	72.695858	1.876765	198133.265494	121.490000
728.000000	72.795841	1.876243	198007.305621	121.520000
729.000000	72.895890	1.876974	198183.649443	121.540000
730.000000	72.995856	1.876243	198007.305621	121.580000
731.000000	73.095724	1.876870	198158.457468	121.610000
732.000000	73.195822	1.876765	198133.265494	121.640000
733.000000	73.295818	1.876556	198082.881545	121.660000
734.000000	73.395847	1.876243	198007.305621	121.690000
735.000000	73.495801	1.876765	198133.265494	121.720000
736.000000	73.595819	1.876556	198082.881545	121.770000
737.000000	73.695815	1.877288	198259.225366	121.820000
738.000000	73.795799	1.876974	198183.649443	121.880000
739.000000	73.895796	1.876765	198133.265494	121.940000
740.000000	73.995791	1.877079	198208.841417	121.990000
741.000000	74.095791	1.876870	198158.457468	122.020000
742.000000	74.195795	1.877079	198208.841417	122.020000
743.000000	74.295781	1.876661	198108.073519	122.030000
744.000000	74.395746	1.877183	198234.033392	122.030000
745.000000	74.495677	1.877392	198284.417341	122.030000
746.000000	74.595769	1.876974	198183.649443	122.030000
747.000000	74.695729	1.876870	198158.457468	122.040000
748.000000	74.795754	1.877183	198234.033392	122.060000
749.000000	74.895729	1.877288	198259.225366	122.070000
750.000000	74.995679	1.877079	198208.841417	122.110000
751.000000	75.095734	1.876974	198183.649443	122.140000
752.000000	75.195732	1.877079	198208.841417	122.170000
753.000000	75.295731	1.876556	198082.881545	122.200000
754.000000	75.395707	1.876870	198158.457468	122.230000
755.000000	75.495686	1.877392	198284.417341	122.250000
756.000000	75.595730	1.877183	198234.033392	122.270000
757.000000	75.695699	1.876870	198158.457468	122.300000
758.000000	75.795712	1.876974	198183.649443	122.330000
759.000000	75.895681	1.876661	198108.073519	122.370000
760.000000	75.995696	1.876974	198183.649443	122.400000
761.000000	76.095658	1.876870	198158.457468	122.440000
762.000000	76.195687	1.876870	198158.457468	122.460000
763.000000	76.295637	1.876765	198133.265494	122.490000
764.000000	76.395647	1.877079	198208.841417	122.510000
765.000000	76.495643	1.877497	198309.609315	122.530000
766.000000	76.595629	1.877392	198284.417341	122.560000
767.000000	76.695648	1.877497	198309.609315	122.590000
768.000000	76.795640	1.877079	198208.841417	122.630000
769.000000	76.895623	1.876870	198158.457468	122.660000
770.000000	76.995601	1.876870	198158.457468	122.690000
771.000000	77.095609	1.877497	198309.609315	122.720000
772.000000	77.195615	1.877392	198284.417341	122.740000
773.000000	77.295616	1.876765	198133.265494	122.760000
774.000000	77.395584	1.877183	198234.033392	122.780000
775.000000	77.495590	1.876556	198082.881545	122.790000
776.000000	77.595622	1.876661	198108.073519	122.810000
777.000000	77.695637	1.877183	198234.033392	122.840000
778.000000	77.795634	1.877079	198208.841417	122.850000
779.000000	77.895605	1.877183	198234.033392	122.870000
780.000000	77.995587	1.876661	198108.073519	122.900000
781.000000	78.095600	1.876452	198057.689570	122.930000
782.000000	78.195578	1.876974	198183.649443	122.950000
783.000000	78.295600	1.877079	198208.841417	122.990000
784.000000	78.395618	1.876870	198158.457468	123.030000
785.000000	78.495597	1.876974	198183.649443	123.070000
786.000000	78.595592	1.876661	198108.073519	123.110000
787.000000	78.695584	1.876765	198133.265494	123.130000
788.000000	78.795656	1.876870	198158.457468	123.130000
789.000000	78.895578	1.876765	198133.265494	123.140000
790.000000	78.995561	1.876870	198158.457468	123.140000
791.000000	79.095528	1.877079	198208.841417	123.160000
792.000000	79.195431	1.876556	198082.881545	123.180000
793.000000	79.295540	1.876138	197982.113646	123.200000
794.000000	79.395525	1.877079	198208.841417	123.220000
795.000000	79.495534	1.877183	198234.033392	123.260000
796.000000	79.595494	1.876661	198108.073519	123.300000
797.000000	79.695490	1.876765	198133.265494	123.360000
798.000000	79.795522	1.876556	198082.881545	123.420000
799.000000	79.895508	1.876661	198108.073519	123.460000
800.000000	79.995585	1.876870	198158.457468	123.490000
801.000000	80.095509	1.876870	198158.457468	123.510000
802.000000	80.195493	1.876452	198057.689570	123.530000
803.000000	80.295475	1.876138	197982.113646	123.540000
804.000000	80.395474	1.876661	198108.073519	123.550000
805.000000	80.495480	1.876765	198133.265494	123.560000
806.000000	80.595425	1.876347	198032.497596	123.570000
807.000000	80.695478	1.876661	198108.073519	123.590000
808.000000	80.795465	1.876870	198158.457468	123.610000
809.000000	80.895432	1.876452	198057.689570	123.650000
810.000000	80.995410	1.876765	198133.265494	123.690000
811.000000	81.095435	1.876347	198032.497596	123.730000
812.000000	81.195447	1.876661	198108.073519	123.770000
813.000000	81.295396	1.876870	198158.457468	123.800000
814.000000	81.395455	1.876452	198057.689570	123.820000
815.000000	81.495410	1.877183	198234.033392	123.830000
816.000000	81.595432	1.876452	198057.689570	123.830000
817.000000	81.695425	1.876347	198032.497596	123.840000
818.000000	81.795398	1.876243	198007.305621	123.870000
819.000000	81.895401	1.876452	198057.689570	123.880000
820.000000	81.995395	1.876452	198057.689570	123.910000
821.000000	82.095264	1.876974	198183.649443	123.940000
822.000000	82.195404	1.876765	198133.265494	123.970000
823.000000	82.295384	1.876765	198133.265494	124.010000
824.000000	82.395358	1.876138	197982.113646	124.050000
825.000000	82.495369	1.876974	198183.649443	124.090000
826.000000	82.595369	1.876243	198007.305621	124.130000
827.000000	82.695341	1.876452	198057.689570	124.170000
828.000000	82.795371	1.876556	198082.881545	124.190000
829.000000	82.895328	1.877288	198259.225366	124.200000
830.000000	82.995306	1.876974	198183.649443	124.220000
831.000000	83.095315	1.876452	198057.689570	124.240000
832.000000	83.195332	1.876556	198082.881545	124.250000
833.000000	83.295282	1.877183	198234.033392	124.270000
834.000000	83.395323	1.876661	198108.073519	124.280000
835.000000	83.495199	1.876347	198032.497596	124.310000
836.000000	83.595282	1.876974	198183.649443	124.340000
837.000000	83.695296	1.876347	198032.497596	124.390000
838.000000	83.795304	1.876765	198133.265494	124.420000
839.000000	83.895249	1.876765	198133.265494	124.460000
840.000000	83.995238	1.876243	198007.305621	124.500000
841.000000	84.095284	1.876765	198133.265494	124.530000
842.000000	84.195251	1.876661	198108.073519	124.550000
843.000000	84.295155	1.877183	198234.033392	124.580000
844.000000	84.395265	1.876765	198133.265494	124.590000
845.000000	84.495209	1.877392	198284.417341	124.610000
846.000000	84.595253	1.876661	198108.073519	124.640000
847.000000	84.695241	1.876765	198133.265494	124.650000
848.000000	84.795204	1.876556	198082.881545	124.660000
849.000000	84.895233	1.876974	198183.649443	124.670000
850.000000	84.995214	1.877079	198208.841417	124.670000
851.000000	85.095187	1.876870	198158.457468	124.700000
852.000000	85.195219	1.876870	198158.457468	124.710000
853.000000	85.295213	1.877079	198208.841417	124.740000
854.000000	85.395169	1.876556	198082.881545	124.790000
855.000000	85.495192	1.877183	198234.033392	124.830000
856.000000	85.595083	1.876661	198108.073519	124.880000
857.000000	85.695185	1.877183	198234.033392	124.920000
858.000000	85.795176	1.877079	198208.841417	124.950000
859.000000	85.895163	1.876870	198158.457468	124.960000
860.000000	85.995129	1.877183	198234.033392	124.980000
861.000000	86.095155	1.876661	198108.073519	125.000000
862.000000	86.195186	1.876870	198158.457468	125.020000
863.000000	86.295112	1.876556	198082.881545	125.060000
864.000000	86.395162	1.876765	198133.265494	125.090000
865.000000	86.495107	1.877497	198309.609315	125.130000
866.000000	86.595101	1.876661	198108.073519	125.180000
867.000000	86.695139	1.877497	198309.609315	125.220000
868.000000	86.795132	1.876661	198108.073519	125.250000
869.000000	86.895092	1.876974	198183.649443	125.280000
870.000000	86.995021	1.876765	198133.265494	125.290000
871.000000	87.095100	1.876974	198183.649443	125.290000
872.000000	87.195082	1.877079	198208.841417	125.290000
873.000000	87.295106	1.876974	198183.649443	125.300000
874.000000	87.395094	1.877183	198234.033392	125.300000
875.000000	87.495057	1.876556	198082.881545	125.310000
876.000000	87.595097	1.876870	198158.457468	125.320000
877.000000	87.695049	1.876765	198133.265494	125.340000
878.000000	87.794898	1.877079	198208.841417	125.370000
879.000000	87.895046	1.877288	198259.225366	125.400000
880.000000	87.995049	1.876765	198133.265494	125.430000
881.000000	88.095028	1.876870	198158.457468	125.470000
882.000000	88.195011	1.877079	198208.841417	125.520000
883.000000	88.295024	1.876870	198158.457468	125.560000
884.000000	88.394991	1.876974	198183.649443	125.610000
885.000000	88.495016	1.876452	198057.689570	125.640000
886.000000	88.594945	1.876870	198158.457468	125.670000
887.000000	88.694987	1.876974	198183.649443	125.700000
888.000000	88.794882	1.876661	198108.073519	125.710000
889.000000	88.894874	1.876765	198133.265494	125.750000
890.000000	88.994933	1.877079	198208.841417	125.790000
891.000000	89.095030	1.876556	198082.881545	125.820000
892.000000	89.195077	1.876661	198108.073519	125.850000
893.000000	89.295060	1.876765	198133.265494	125.880000
894.000000	89.395041	1.876556	198082.881545	125.910000
895.000000	89.494805	1.876765	198133.265494	125.920000
896.000000	89.594953	1.876765	198133.265494	125.940000
897.000000	89.695013	1.876556	198082.881545	125.950000
898.000000	89.794925	1.876556	198082.881545	125.970000
899.000000	89.894904	1.876765	198133.265494	125.980000
900.000000	89.994883	1.876347	198032.497596	125.990000
901.000000	90.094830	1.876661	198108.073519	126.010000
902.000000	90.194767	1.876347	198032.497596	126.040000
903.000000	90.294738	1.876034	197956.921672	126.060000
904.000000	90.394722	1.876556	198082.881545	126.080000
905.000000	90.494803	1.876243	198007.305621	126.100000
906.000000	90.594897	1.876661	198108.073519	126.120000
907.000000	90.695026	1.876556	198082.881545	126.130000
908.000000	90.794978	1.876138	197982.113646	126.150000
909.000000	90.894972	1.876347	198032.497596	126.180000
910.000000	90.994979	1.876870	198158.457468	126.220000
911.000000	91.094839	1.876870	198158.457468	126.260000
912.000000	91.194905	1.876556	198082.881545	126.310000
913.000000	91.294871	1.876452	198057.689570	126.360000
914.000000	91.394861	1.875929	197931.729697	126.400000
915.000000	91.494856	1.876138	197982.113646	126.430000
916.000000	91.594841	1.876034	197956.921672	126.460000
917.000000	91.694809	1.876243	198007.305621	126.480000
918.000000	91.794819	1.876661	198108.073519	126.500000
919.000000	91.894841	1.876347	198032.497596	126.520000
920.000000	91.994800	1.876347	198032.497596	126.540000
921.000000	92.094798	1.876765	198133.265494	126.560000
922.000000	92.194824	1.876452	198057.689570	126.580000
923.000000	92.294779	1.876452	198057.689570	126.600000
924.000000	92.394815	1.876347	198032.497596	126.630000
925.000000	92.494650	1.876243	198007.305621	126.670000
926.000000	92.594776	1.876556	198082.881545	126.700000
927.000000	92.694785	1.876765	198133.265494	126.730000
928.000000	92.794788	1.876870	198158.457468	126.760000
929.000000	92.894725	1.876138	197982.113646	126.760000
930.000000	92.994733	1.876243	198007.305621	126.780000
931.000000	93.094753	1.876974	198183.649443	126.790000
932.000000	93.194727	1.876870	198158.457468	126.800000
933.000000	93.294753	1.876452	198057.689570	126.820000
934.000000	93.394731	1.876347	198032.497596	126.830000
935.000000	93.494721	1.877079	198208.841417	126.850000
936.000000	93.594662	1.876138	197982.113646	126.860000
937.000000	93.694651	1.876452	198057.689570	126.890000
938.000000	93.794691	1.876138	197982.113646	126.920000
939.000000	93.894719	1.876034	197956.921672	126.960000
940.000000	93.994709	1.876556	198082.881545	127.010000
941.000000	94.094680	1.876556	198082.881545	127.050000
942.000000	94.194697	1.876556	198082.881545	127.100000
943.000000	94.294685	1.877183	198234.033392	127.130000
944.000000	94.394668	1.876765	198133.265494	127.170000
945.000000	94.494682	1.876661	198108.073519	127.190000
946.000000	94.594664	1.876661	198108.073519	127.220000
947.000000	94.694660	1.876765	198133.265494	127.250000
948.000000	94.794655	1.876661	198108.073519	127.280000
949.000000	94.894651	1.876974	198183.649443	127.300000
950.000000	94.994560	1.876452	198057.689570	127.330000
951.000000	95.094657	1.876765	198133.265494	127.350000
952.000000	95.194650	1.875929	197931.729697	127.380000
953.000000	95.294606	1.876452	198057.689570	127.410000
954.000000	95.394642	1.875929	197931.729697	127.430000
955.000000	95.494626	1.876870	198158.457468	127.460000
956.000000	95.594553	1.876556	198082.881545	127.460000
957.000000	95.694575	1.876870	198158.457468	127.460000
958.000000	95.794615	1.876452	198057.689570	127.470000
959.000000	95.894577	1.876870	198158.457468	127.500000
960.000000	95.994467	1.877183	198234.033392	127.510000
961.000000	96.094610	1.877183	198234.033392	127.520000
962.000000	96.194661	1.876452	198057.689570	127.530000
963.000000	96.294599	1.876765	198133.265494	127.550000
964.000000	96.394669	1.876556	198082.881545	127.570000
965.000000	96.494537	1.876870	198158.457468	127.590000
966.000000	96.594554	1.876452	198057.689570	127.610000
967.000000	96.694557	1.876974	198183.649443	127.630000
968.000000	96.794392	1.877079	198208.841417	127.680000
969.000000	96.894544	1.876870	198158.457468	127.740000
970.000000	96.994529	1.876661	198108.073519	127.810000
971.000000	97.094504	1.876765	198133.265494	127.870000
972.000000	97.194510	1.876870	198158.457468	127.940000
973.000000	97.294515	1.876452	198057.689570	127.980000
974.000000	97.394489	1.876974	198183.649443	128.010000
975.000000	97.494509	1.876347	198032.497596	128.010000
976.000000	97.594509	1.877183	198234.033392	128.020000
977.000000	97.694476	1.876765	198133.265494	128.020000
978.000000	97.794490	1.876765	198133.265494	128.020000
979.000000	97.894457	1.876870	198158.457468	128.050000
980.000000	97.994461	1.876556	198082.881545	128.070000
981.000000	98.094481	1.876243	198007.305621	128.100000
982.000000	98.194471	1.876765	198133.265494	128.120000
983.000000	98.294420	1.876452	198057.689570	128.150000
984.000000	98.394469	1.876347	198032.497596	128.170000
985.000000	98.494446	1.876556	198082.881545	128.190000
986.000000	98.594411	1.876765	198133.265494	128.210000
987.000000	98.694458	1.876243	198007.305621	128.210000
988.000000	98.794448	1.876243	198007.305621	128.220000
989.000000	98.894420	1.876661	198108.073519	128.230000
990.000000	98.994409	1.877497	198309.609315	128.250000
991.000000	99.094424	1.876765	198133.265494	128.260000
992.000000	99.194408	1.876452	198057.689570	128.290000
993.000000	99.294380	1.876243	198007.305621	128.320000
994.000000	99.394400	1.876974	198183.649443	128.350000
995.000000	99.494353	1.876556	198082.881545	128.400000
996.000000	99.594339	1.876765	198133.265494	128.440000
997.000000	99.694381	1.876765	198133.265494	128.490000
998.000000	99.794349	1.876243	198007.305621	128.540000
999.000000	99.894383	1.876661	198108.073519	128.590000
1000.000000	99.994360	1.876661	198108.073519	128.630000
1001.000000	100.094317	1.876661	198108.073519	128.660000
1002.000000	100.194367	1.876556	198082.881545	128.690000
1003.000000	100.294313	1.876347	198032.497596	128.710000
1004.000000	100.394339	1.876452	198057.689570	128.730000
1005.000000	100.494318	1.876556	198082.881545	128.730000
1006.000000	100.594325	1.876870	198158.457468	128.750000
1007.000000	100.694315	1.876452	198057.689570	128.760000
1008.000000	100.794333	1.876765	198133.265494	128.780000
1009.000000	100.894322	1.876452	198057.689570	128.800000
1010.000000	100.994296	1.876243	198007.305621	128.840000
1011.000000	101.094308	1.876661	198108.073519	128.850000
1012.000000	101.194296	1.876452	198057.689570	128.880000
1013.000000	101.294275	1.876243	198007.305621	128.900000
1014.000000	101.394291	1.876138	197982.113646	128.930000
1015.000000	101.494168	1.876974	198183.649443	128.950000
1016.000000	101.594244	1.876034	197956.921672	128.980000
1017.000000	101.694212	1.876243	198007.305621	129.000000
1018.000000	101.794269	1.875616	197856.153774	129.010000
1019.000000	101.894222	1.876138	197982.113646	129.030000
1020.000000	101.994220	1.876556	198082.881545	129.040000
1021.000000	102.094244	1.876243	198007.305621	129.060000
1022.000000	102.194219	1.876870	198158.457468	129.080000
1023.000000	102.294248	1.876243	198007.305621	129.110000
1024.000000	102.394222	1.876243	198007.305621	129.150000
1025.000000	102.494203	1.876452	198057.689570	129.190000
1026.000000	102.594212	1.876138	197982.113646	129.230000
1027.000000	102.694212	1.876452	198057.689570	129.260000
1028.000000	102.794175	1.876347	198032.497596	129.300000
1029.000000	102.894206	1.876138	197982.113646	129.320000
1030.000000	102.994195	1.876661	198108.073519	129.350000
1031.000000	103.094164	1.876034	197956.921672	129.380000
1032.000000	103.194181	1.876452	198057.689570	129.420000
1033.000000	103.294185	1.876870	198158.457468	129.450000
1034.000000	103.394144	1.876347	198032.497596	129.470000
1035.000000	103.494173	1.876661	198108.073519	129.490000
1036.000000	103.594168	1.876661	198108.073519	129.520000
1037.000000	103.694132	1.876243	198007.305621	129.560000
1038.000000	103.794170	1.876243	198007.305621	129.590000
1039.000000	103.894112	1.876556	198082.881545	129.620000
1040.000000	103.993996	1.876347	198032.497596	129.640000
1041.000000	104.094136	1.876661	198108.073519	129.660000
1042.000000	104.194129	1.876452	198057.689570	129.680000
1043.000000	104.294096	1.876556	198082.881545	129.700000
1044.000000	104.394107	1.876034	197956.921672	129.700000
1045.000000	104.494116	1.876661	198108.073519	129.720000
1046.000000	104.594141	1.876034	197956.921672	129.730000
1047.000000	104.694087	1.876452	198057.689570	129.740000
1048.000000	104.794106	1.876661	198108.073519	129.760000
1049.000000	104.894070	1.876765	198133.265494	129.770000
1050.000000	104.993995	1.877079	198208.841417	129.790000
1051.000000	105.094074	1.876452	198057.689570	129.820000
1052.000000	105.194078	1.876347	198032.497596	129.850000
1053.000000	105.294033	1.876661	198108.073519	129.890000
1054.000000	105.394062	1.876661	198108.073519	129.930000
1055.000000	105.494020	1.876452	198057.689570	129.970000
1056.000000	105.594053	1.876870	198158.457468	130.010000
1057.000000	105.694046	1.877079	198208.841417	130.040000
1058.000000	105.794006	1.877079	198208.841417	130.070000
1059.000000	105.894033	1.876452	198057.689570	130.110000
1060.000000	105.994025	1.876556	198082.881545	130.150000
1061.000000	106.093979	1.876974	198183.649443	130.180000
1062.000000	106.193845	1.876765	198133.265494	130.210000
1063.000000	106.293999	1.876661	198108.073519	130.230000
1064.000000	106.393978	1.876661	198108.073519	130.240000
1065.000000	106.493997	1.876243	198007.305621	130.260000
1066.000000	106.593980	1.876870	198158.457468	130.280000
1067.000000	106.693978	1.877079	198208.841417	130.310000
1068.000000	106.793991	1.876661	198108.073519	130.340000
1069.000000	106.893971	1.877079	198208.841417	130.370000
1070.000000	106.993980	1.876870	198158.457468	130.390000
1071.000000	107.093977	1.876974	198183.649443	130.390000
1072.000000	107.193955	1.876765	198133.265494	130.390000
1073.000000	107.293926	1.876556	198082.881545	130.400000
1074.000000	107.393945	1.876661	198108.073519	130.400000
1075.000000	107.493926	1.876765	198133.265494	130.420000
1076.000000	107.593916	1.876243	198007.305621	130.440000
1077.000000	107.693854	1.876765	198133.265494	130.470000
1078.000000	107.793874	1.876661	198108.073519	130.520000
1079.000000	107.893827	1.876347	198032.497596	130.570000
1080.000000	107.993883	1.876452	198057.689570	130.620000
1081.000000	108.093931	1.876765	198133.265494	130.670000
1082.000000	108.193954	1.876661	198108.073519	130.710000
1083.000000	108.294046	1.876765	198133.265494	130.740000
1084.000000	108.393961	1.876347	198032.497596	130.750000
1085.000000	108.493851	1.877079	198208.841417	130.750000
1086.000000	108.593814	1.876661	198108.073519	130.770000
1087.000000	108.693834	1.876243	198007.305621	130.780000
1088.000000	108.793811	1.876243	198007.305621	130.810000
1089.000000	108.893855	1.876661	198108.073519	130.840000
1090.000000	108.993658	1.877079	198208.841417	130.890000
1091.000000	109.093654	1.876243	198007.305621	130.930000
1092.000000	109.193718	1.876556	198082.881545	130.960000
1093.000000	109.293654	1.876452	198057.689570	130.960000
1094.000000	109.393707	1.876661	198108.073519	131.000000
1095.000000	109.493714	1.876138	197982.113646	131.000000
1096.000000	109.593821	1.876452	198057.689570	131.020000
1097.000000	109.693886	1.876974	198183.649443	131.040000
1098.000000	109.793945	1.876138	197982.113646	131.060000
1099.000000	109.893883	1.876765	198133.265494	131.100000
1100.000000	109.993879	1.876452	198057.689570	131.130000
1101.000000	110.093776	1.876347	198032.497596	131.160000
1102.000000	110.193609	1.876556	198082.881545	131.190000
1103.000000	110.293795	1.875929	197931.729697	131.210000
1104.000000	110.393781	1.876138	197982.113646	131.250000
1105.000000	110.493661	1.876870	198158.457468	131.270000
1106.000000	110.593730	1.876243	198007.305621	131.290000
1107.000000	110.693777	1.876347	198032.497596	131.310000
1108.000000	110.793744	1.876347	198032.497596	131.340000
1109.000000	110.893710	1.876452	198057.689570	131.370000
1110.000000	110.993711	1.876452	198057.689570	131.410000
1111.000000	111.093732	1.875929	197931.729697	131.440000
1112.000000	111.193699	1.876452	198057.689570	131.470000
1113.000000	111.293720	1.876243	198007.305621	131.500000
1114.000000	111.393723	1.876243	198007.305621	131.500000
1115.000000	111.493664	1.876347	198032.497596	131.500000
1116.000000	111.593716	1.876138	197982.113646	131.500000
1117.000000	111.693702	1.876347	198032.497596	131.510000
1118.000000	111.793675	1.875616	197856.153774	131.540000
1119.000000	111.893686	1.876452	198057.689570	131.560000
1120.000000	111.993657	1.876452	198057.689570	131.610000
1121.000000	112.093618	1.876661	198108.073519	131.650000
1122.000000	112.193672	1.876347	198032.497596	131.700000
1123.000000	112.293663	1.876765	198133.265494	131.740000
1124.000000	112.393630	1.876870	198158.457468	131.780000
1125.000000	112.493654	1.876243	198007.305621	131.810000
1126.000000	112.593640	1.876452	198057.689570	131.840000
1127.000000	112.693635	1.876138	197982.113646	131.850000
1128.000000	112.793646	1.876870	198158.457468	131.860000
1129.000000	112.893632	1.876452	198057.689570	131.890000
1130.000000	112.993592	1.876347	198032.497596	131.890000
1131.000000	113.093623	1.875929	197931.729697	131.910000
1132.000000	113.193607	1.876347	198032.497596	131.930000
1133.000000	113.293578	1.876243	198007.305621	131.970000
1134.000000	113.393627	1.876556	198082.881545	132.010000
1135.000000	113.493546	1.876243	198007.305621	132.040000
1136.000000	113.593566	1.876452	198057.689570	132.080000
1137.000000	113.693605	1.876661	198108.073519	132.110000
1138.000000	113.793610	1.876452	198057.689570	132.130000
1139.000000	113.893546	1.876138	197982.113646	132.140000
1140.000000	113.993542	1.876138	197982.113646	132.150000
1141.000000	114.093574	1.876661	198108.073519	132.170000
1142.000000	114.193541	1.876347	198032.497596	132.180000
1143.000000	114.293558	1.876556	198082.881545	132.200000
1144.000000	114.393561	1.876661	198108.073519	132.220000
1145.000000	114.493626	1.876034	197956.921672	132.250000
1146.000000	114.593540	1.876556	198082.881545	132.280000
1147.000000	114.693533	1.876034	197956.921672	132.330000
1148.000000	114.793424	1.876452	198057.689570	132.360000
1149.000000	114.893522	1.876661	198108.073519	132.400000
1150.000000	114.993512	1.876765	198133.265494	132.440000
1151.000000	115.093493	1.876556	198082.881545	132.470000
1152.000000	115.193466	1.876765	198133.265494	132.500000
1153.000000	115.293486	1.876870	198158.457468	132.520000
1154.000000	115.393467	1.876556	198082.881545	132.540000
1155.000000	115.493478	1.877079	198208.841417	132.570000
1156.000000	115.593486	1.876556	198082.881545	132.590000
1157.000000	115.693443	1.876765	198133.265494	132.610000
1158.000000	115.793460	1.877183	198234.033392	132.620000
1159.000000	115.893452	1.877183	198234.033392	132.640000
1160.000000	115.993426	1.877079	198208.841417	132.670000
1161.000000	116.093454	1.876870	198158.457468	132.700000
1162.000000	116.193447	1.876765	198133.265494	132.720000
1163.000000	116.293446	1.877079	198208.841417	132.750000
1164.000000	116.393453	1.876661	198108.073519	132.760000
1165.000000	116.493426	1.876974	198183.649443	132.790000
1166.000000	116.593414	1.876556	198082.881545	132.810000
1167.000000	116.693415	1.876765	198133.265494	132.840000
1168.000000	116.793432	1.876556	198082.881545	132.880000
1169.000000	116.893372	1.876974	198183.649443	132.910000
1170.000000	116.993364	1.877079	198208.841417	132.940000
1171.000000	117.093337	1.876347	198032.497596	132.970000
1172.000000	117.193418	1.876347	198032.497596	132.970000
1173.000000	117.293344	1.876661	198108.073519	133.000000
1174.000000	117.393405	1.875929	197931.729697	133.010000
1175.000000	117.493348	1.877079	198208.841417	133.030000
1176.000000	117.593375	1.876870	198158.457468	133.060000
1177.000000	117.693362	1.876661	198108.073519	133.090000
1178.000000	117.793341	1.876870	198158.457468	133.120000
1179.000000	117.893345	1.876661	198108.073519	133.160000
1180.000000	117.993359	1.876556	198082.881545	133.190000
1181.000000	118.093307	1.876765	198133.265494	133.220000
1182.000000	118.193331	1.876556	198082.881545	133.250000
1183.000000	118.293336	1.876661	198108.073519	133.270000
1184.000000	118.393300	1.876452	198057.689570	133.300000
1185.000000	118.493337	1.876243	198007.305621	133.310000
1186.000000	118.593331	1.876974	198183.649443	133.330000
1187.000000	118.693288	1.876452	198057.689570	133.350000
1188.000000	118.793294	1.876138	197982.113646	133.370000
1189.000000	118.893286	1.876765	198133.265494	133.410000
1190.000000	118.993253	1.876870	198158.457468	133.440000
1191.000000	119.093282	1.876243	198007.305621	133.470000
1192.000000	119.193216	1.876347	198032.497596	133.500000
1193.000000	119.293241	1.876661	198108.073519	133.540000
1194.000000	119.393264	1.876243	198007.305621	133.570000
1195.000000	119.493120	1.876243	198007.305621	133.590000
1196.000000	119.593214	1.876452	198057.689570	133.620000
1197.000000	119.693244	1.876138	197982.113646	133.650000
1198.000000	119.793239	1.876347	198032.497596	133.670000
1199.000000	119.893193	1.876347	198032.497596	133.670000
1200.000000	119.993208	1.876034	197956.921672	133.680000
1201.000000	120.093184	1.876243	198007.305621	133.700000
1202.000000	120.193191	1.875929	197931.729697	133.710000
1203.000000	120.293205	1.876138	197982.113646	133.720000
1204.000000	120.393198	1.876034	197956.921672	133.740000
1205.000000	120.493170	1.876243	198007.305621	133.770000
1206.000000	120.593191	1.876034	197956.921672	133.800000
1207.000000	120.693145	1.875720	197881.345748	133.830000
1208.000000	120.793154	1.876034	197956.921672	133.870000
1209.000000	120.893179	1.875929	197931.729697	133.910000
1210.000000	120.993182	1.875929	197931.729697	133.950000
1211.000000	121.093137	1.876138	197982.113646	133.970000
1212.000000	121.193156	1.876556	198082.881545	134.000000
1213.000000	121.293144	1.876243	198007.305621	134.030000
1214.000000	121.393119	1.876452	198057.689570	134.060000
1215.000000	121.493126	1.875929	197931.729697	134.100000
1216.000000	121.593137	1.876452	198057.689570	134.140000
1217.000000	121.693095	1.876347	198032.497596	134.170000
1218.000000	121.793091	1.876034	197956.921672	134.200000
1219.000000	121.893087	1.875825	197906.537723	134.230000
1220.000000	121.993095	1.876452	198057.689570	134.250000
1221.000000	122.093113	1.875929	197931.729697	134.270000
1222.000000	122.193125	1.875929	197931.729697	134.270000
1223.000000	122.293098	1.876138	197982.113646	134.290000
1224.000000	122.393105	1.875720	197881.345748	134.310000
1225.000000	122.493088	1.876034	197956.921672	134.330000
1226.000000	122.593054	1.876138	197982.113646	134.350000
1227.000000	122.693022	1.876034	197956.921672	134.380000
1228.000000	122.793069	1.876452	198057.689570	134.400000
1229.000000	122.893034	1.876243	198007.305621	134.410000
1230.000000	122.993031	1.876034	197956.921672	134.430000
1231.000000	123.093053	1.876243	198007.305621	134.450000
1232.000000	123.193025	1.876034	197956.921672	134.460000
1233.000000	123.293037	1.876452	198057.689570	134.460000
1234.000000	123.393005	1.876138	197982.113646	134.500000
1235.000000	123.493000	1.876138	197982.113646	134.530000
1236.000000	123.593002	1.876347	198032.497596	134.580000
1237.000000	123.692865	1.876243	198007.305621	134.630000
1238.000000	123.792864	1.876243	198007.305621	134.690000
1239.000000	123.893021	1.876034	197956.921672	134.720000
1240.000000	123.992936	1.876452	198057.689570	134.760000
1241.000000	124.092960	1.876347	198032.497596	134.780000
1242.000000	124.192979	1.876243	198007.305621	134.810000
1243.000000	124.292981	1.876452	198057.689570	134.820000
1244.000000	124.392958	1.876556	198082.881545	134.860000
1245.000000	124.492973	1.876347	198032.497596	134.880000
1246.000000	124.592961	1.876452	198057.689570	134.910000
1247.000000	124.692937	1.876974	198183.649443	134.920000
1248.000000	124.792922	1.876556	198082.881545	134.920000
1249.000000	124.892899	1.875720	197881.345748	134.950000
1250.000000	124.992926	1.876556	198082.881545	134.960000
1251.000000	125.092953	1.876452	198057.689570	134.990000
1252.000000	125.192926	1.876765	198133.265494	135.010000
1253.000000	125.292897	1.876452	198057.689570	135.040000
1254.000000	125.392922	1.876347	198032.497596	135.070000
1255.000000	125.492918	1.876034	197956.921672	135.090000
1256.000000	125.592879	1.876243	198007.305621	135.110000
1257.000000	125.692907	1.876661	198108.073519	135.120000
1258.000000	125.792931	1.876243	198007.305621	135.150000
1259.000000	125.892884	1.876347	198032.497596	135.170000
1260.000000	125.992858	1.876556	198082.881545	135.190000
1261.000000	126.092862	1.876243	198007.305621	135.220000
1262.000000	126.192841	1.876661	198108.073519	135.230000
1263.000000	126.292864	1.876243	198007.305621	135.250000
1264.000000	126.392924	1.876974	198183.649443	135.280000
1265.000000	126.492827	1.876347	198032.497596	135.320000
1266.000000	126.592817	1.876556	198082.881545	135.360000
1267.000000	126.692804	1.875825	197906.537723	135.410000
1268.000000	126.792716	1.876347	198032.497596	135.450000
1269.000000	126.892703	1.876243	198007.305621	135.470000
1270.000000	126.992702	1.876138	197982.113646	135.490000
1271.000000	127.092864	1.876452	198057.689570	135.510000
1272.000000	127.192815	1.876661	198108.073519	135.540000
1273.000000	127.292844	1.876243	198007.305621	135.580000
1274.000000	127.392697	1.876556	198082.881545	135.610000
1275.000000	127.492687	1.876034	197956.921672	135.630000
1276.000000	127.592827	1.876556	198082.881545	135.660000
1277.000000	127.692740	1.876765	198133.265494	135.680000
1278.000000	127.792782	1.876661	198108.073519	135.680000
1279.000000	127.892763	1.876661	198108.073519	135.690000
1280.000000	127.992599	1.876556	198082.881545	135.710000
1281.000000	128.092621	1.876765	198133.265494	135.740000
1282.000000	128.192604	1.876347	198032.497596	135.770000
1283.000000	128.292589	1.876556	198082.881545	135.820000
1284.000000	128.392578	1.876347	198032.497596	135.850000
1285.000000	128.492627	1.876347	198032.497596	135.880000
1286.000000	128.592733	1.876452	198057.689570	135.910000
1287.000000	128.692863	1.876661	198108.073519	135.920000
1288.000000	128.792798	1.876452	198057.689570	135.920000
1289.000000	128.892779	1.876243	198007.305621	135.930000
1290.000000	128.992778	1.876765	198133.265494	135.930000
1291.000000	129.092667	1.876452	198057.689570	135.940000
1292.000000	129.192671	1.876765	198133.265494	135.960000
1293.000000	129.292699	1.876243	198007.305621	135.990000
1294.000000	129.392701	1.876243	198007.305621	136.020000
1295.000000	129.492679	1.876138	197982.113646	136.060000
1296.000000	129.592652	1.876243	198007.305621	136.110000
1297.000000	129.692685	1.875929	197931.729697	136.150000
1298.000000	129.792649	1.876452	198057.689570	136.190000
1299.000000	129.892668	1.875825	197906.537723	136.220000
1300.000000	129.992669	1.876138	197982.113646	136.260000
1301.000000	130.092638	1.876243	198007.305621	136.290000
1302.000000	130.192647	1.876243	198007.305621	136.320000
1303.000000	130.292542	1.875616	197856.153774	136.360000
1304.000000	130.392605	1.876243	198007.305621	136.390000
1305.000000	130.492623	1.876034	197956.921672	136.410000
1306.000000	130.592635	1.876347	198032.497596	136.450000
1307.000000	130.692621	1.876452	198057.689570	136.460000
1308.000000	130.792573	1.876556	198082.881545	136.480000
1309.000000	130.892601	1.876556	198082.881545	136.500000
1310.000000	130.992569	1.876034	197956.921672	136.510000
1311.000000	131.092595	1.876452	198057.689570	136.530000
1312.000000	131.192585	1.876347	198032.497596	136.560000
1313.000000	131.292564	1.875929	197931.729697	136.580000
1314.000000	131.392571	1.875825	197906.537723	136.600000
1315.000000	131.492565	1.876138	197982.113646	136.610000
1316.000000	131.592537	1.876138	197982.113646	136.630000
1317.000000	131.692566	1.876034	197956.921672	136.640000
1318.000000	131.792556	1.876138	197982.113646	136.650000
1319.000000	131.892545	1.875929	197931.729697	136.680000
1320.000000	131.992505	1.876347	198032.497596	136.680000
1321.000000	132.092549	1.875407	197805.769825	136.700000
1322.000000	132.192507	1.876347	198032.497596	136.720000
1323.000000	132.292524	1.876138	197982.113646	136.750000
1324.000000	132.392529	1.875825	197906.537723	136.780000
1325.000000	132.492494	1.876243	198007.305621	136.820000
1326.000000	132.592514	1.875929	197931.729697	136.880000
1327.000000	132.692511	1.876347	198032.497596	136.940000
1328.000000	132.792630	1.876034	197956.921672	137.000000
1329.000000	132.892503	1.875825	197906.537723	137.050000
1330.000000	132.992491	1.875929	197931.729697	137.090000
1331.000000	133.092462	1.875825	197906.537723	137.120000
1332.000000	133.192333	1.876034	197956.921672	137.130000
1333.000000	133.292475	1.875929	197931.729697	137.150000
1334.000000	133.392450	1.876138	197982.113646	137.160000
1335.000000	133.492463	1.875720	197881.345748	137.160000
1336.000000	133.592447	1.876347	198032.497596	137.170000
1337.000000	133.692435	1.876138	197982.113646	137.180000
1338.000000	133.792361	1.875720	197881.345748	137.200000
1339.000000	133.892452	1.875720	197881.345748	137.220000
1340.000000	133.992417	1.876347	198032.497596	137.230000
1341.000000	134.092442	1.876138	197982.113646	137.270000
1342.000000	134.192432	1.876138	197982.113646	137.300000
1343.000000	134.292403	1.875929	197931.729697	137.330000
1344.000000	134.392415	1.876138	197982.113646	137.350000
1345.000000	134.492356	1.876243	198007.305621	137.350000
1346.000000	134.592401	1.876765	198133.265494	137.350000
1347.000000	134.692389	1.876243	198007.305621	137.360000
1348.000000	134.792381	1.876138	197982.113646	137.390000
1349.000000	134.892361	1.876138	197982.113646	137.400000
1350.000000	134.992339	1.875616	197856.153774	137.440000
1351.000000	135.092372	1.876452	198057.689570	137.470000
1352.000000	135.192334	1.876243	198007.305621	137.510000
1353.000000	135.292351	1.876138	197982.113646	137.550000
1354.000000	135.392350	1.876034	197956.921672	137.600000
1355.000000	135.492316	1.876243	198007.305621	137.650000
1356.000000	135.592336	1.876556	198082.881545	137.710000
1357.000000	135.692333	1.876347	198032.497596	137.750000
1358.000000	135.792300	1.876243	198007.305621	137.790000
1359.000000	135.892320	1.876034	197956.921672	137.810000
1360.000000	135.992105	1.876452	198057.689570	137.830000
1361.000000	136.092133	1.876138	197982.113646	137.860000
1362.000000	136.192308	1.876243	198007.305621	137.870000
1363.000000	136.292294	1.876661	198108.073519	137.890000
1364.000000	136.392263	1.876661	198108.073519	137.890000
1365.000000	136.492298	1.876452	198057.689570	137.910000
1366.000000	136.592280	1.876765	198133.265494	137.920000
1367.000000	136.692255	1.876661	198108.073519	137.920000
1368.000000	136.792282	1.876243	198007.305621	137.930000
1369.000000	136.892266	1.876556	198082.881545	137.950000
1370.000000	136.992239	1.876347	198032.497596	137.970000
1371.000000	137.092099	1.876661	198108.073519	137.990000
1372.000000	137.192259	1.876870	198158.457468	138.030000
1373.000000	137.292220	1.876243	198007.305621	138.070000
1374.000000	137.392229	1.876556	198082.881545	138.120000
1375.000000	137.492208	1.876452	198057.689570	138.150000
1376.000000	137.592239	1.876452	198057.689570	138.180000
1377.000000	137.692229	1.875929	197931.729697	138.170000
1378.000000	137.792220	1.876243	198007.305621	138.180000
1379.000000	137.892178	1.876556	198082.881545	138.180000
1380.000000	137.992167	1.876870	198158.457468	138.190000
1381.000000	138.092194	1.876452	198057.689570	138.220000
1382.000000	138.192168	1.876452	198057.689570	138.250000
1383.000000	138.292212	1.876556	198082.881545	138.290000
1384.000000	138.392161	1.876452	198057.689570	138.350000
1385.000000	138.492160	1.876138	197982.113646	138.410000
1386.000000	138.592170	1.876661	198108.073519	138.490000
1387.000000	138.692161	1.876452	198057.689570	138.530000
1388.000000	138.792147	1.876765	198133.265494	138.570000
1389.000000	138.892167	1.876556	198082.881545	138.580000
1390.000000	138.992155	1.876347	198032.497596	138.580000
1391.000000	139.092122	1.876243	198007.305621	138.580000
1392.000000	139.192151	1.876347	198032.497596	138.580000
1393.000000	139.292127	1.876870	198158.457468	138.600000
1394.000000	139.392112	1.876556	198082.881545	138.630000
1395.000000	139.492117	1.876347	198032.497596	138.650000
1396.000000	139.592117	1.876138	197982.113646	138.680000
1397.000000	139.692124	1.876138	197982.113646	138.720000
1398.000000	139.792099	1.876556	198082.881545	138.760000
1399.000000	139.892058	1.876452	198057.689570	138.780000
1400.000000	139.992023	1.876556	198082.881545	138.810000
1401.000000	140.092093	1.876034	197956.921672	138.810000
1402.000000	140.192071	1.876347	198032.497596	138.810000
1403.000000	140.292048	1.876661	198108.073519	138.810000
1404.000000	140.392089	1.876243	198007.305621	138.820000
1405.000000	140.492059	1.876452	198057.689570	138.860000
1406.000000	140.592038	1.876034	197956.921672	138.860000
1407.000000	140.692051	1.876034	197956.921672	138.890000
1408.000000	140.792046	1.876661	198108.073519	138.910000
1409.000000	140.892029	1.876243	198007.305621	138.950000
1410.000000	140.992026	1.876243	198007.305621	138.970000
1411.000000	141.091917	1.876452	198057.689570	139.000000
1412.000000	141.191990	1.876243	198007.305621	139.050000
1413.000000	141.292087	1.876661	198108.073519	139.090000
1414.000000	141.391947	1.876243	198007.305621	139.130000
1415.000000	141.491972	1.876243	198007.305621	139.180000
1416.000000	141.592024	1.876452	198057.689570	139.220000
1417.000000	141.691990	1.876452	198057.689570	139.270000
1418.000000	141.791974	1.876034	197956.921672	139.300000
1419.000000	141.891978	1.876138	197982.113646	139.340000
1420.000000	141.991916	1.876243	198007.305621	139.370000
1421.000000	142.091830	1.876138	197982.113646	139.400000
1422.000000	142.192011	1.875929	197931.729697	139.400000
1423.000000	142.291960	1.876138	197982.113646	139.410000
1424.000000	142.391903	1.876556	198082.881545	139.410000
1425.000000	142.491951	1.876452	198057.689570	139.410000
1426.000000	142.591961	1.876243	198007.305621	139.410000
1427.000000	142.691911	1.876452	198057.689570	139.420000
1428.000000	142.791914	1.876243	198007.305621	139.450000
1429.000000	142.891917	1.876138	197982.113646	139.470000
1430.000000	142.991916	1.875929	197931.729697	139.510000
1431.000000	143.091929	1.875929	197931.729697	139.540000
1432.000000	143.191921	1.875825	197906.537723	139.580000
1433.000000	143.291871	1.876243	198007.305621	139.610000
1434.000000	143.391926	1.875929	197931.729697	139.610000
1435.000000	143.491891	1.875929	197931.729697	139.610000
1436.000000	143.591873	1.875825	197906.537723	139.610000
1437.000000	143.691879	1.876138	197982.113646	139.610000
1438.000000	143.791860	1.875720	197881.345748	139.630000
1439.000000	143.891851	1.875929	197931.729697	139.660000
1440.000000	143.991822	1.876556	198082.881545	139.710000
1441.000000	144.091862	1.876034	197956.921672	139.770000
1442.000000	144.191820	1.876034	197956.921672	139.860000
1443.000000	144.291841	1.876034	197956.921672	139.940000
1444.000000	144.391836	1.875825	197906.537723	140.000000
1445.000000	144.491809	1.876034	197956.921672	140.040000
1446.000000	144.591788	1.875929	197931.729697	140.050000
1447.000000	144.691829	1.876243	198007.305621	140.050000
1448.000000	144.791789	1.875929	197931.729697	140.050000
1449.000000	144.891816	1.876034	197956.921672	140.060000
1450.000000	144.991811	1.875825	197906.537723	140.060000
1451.000000	145.091776	1.875825	197906.537723	140.090000
1452.000000	145.191793	1.875825	197906.537723	140.110000
1453.000000	145.291785	1.875720	197881.345748	140.130000
1454.000000	145.391769	1.875616	197856.153774	140.160000
1455.000000	145.491754	1.875616	197856.153774	140.180000
1456.000000	145.591767	1.875929	197931.729697	140.180000
1457.000000	145.691718	1.876034	197956.921672	140.180000
1458.000000	145.791721	1.876452	198057.689570	140.220000
1459.000000	145.891747	1.875929	197931.729697	140.230000
1460.000000	145.991698	1.875407	197805.769825	140.230000
1461.000000	146.091624	1.875616	197856.153774	140.260000
1462.000000	146.191770	1.876347	198032.497596	140.280000
1463.000000	146.291758	1.876347	198032.497596	140.320000
1464.000000	146.391715	1.876034	197956.921672	140.360000
1465.000000	146.491714	1.876452	198057.689570	140.410000
1466.000000	146.591659	1.876138	197982.113646	140.450000
1467.000000	146.691709	1.876138	197982.113646	140.480000
1468.000000	146.791643	1.875720	197881.345748	140.520000
1469.000000	146.891743	1.876452	198057.689570	140.530000
1470.000000	146.991497	1.875825	197906.537723	140.560000
1471.000000	147.091486	1.876243	198007.305621	140.580000
1472.000000	147.191513	1.876452	198057.689570	140.610000
1473.000000	147.291507	1.876138	197982.113646	140.640000
1474.000000	147.391474	1.876661	198108.073519	140.680000
1475.000000	147.491527	1.876347	198032.497596	140.720000
1476.000000	147.591703	1.876556	198082.881545	140.760000
1477.000000	147.691709	1.876243	198007.305621	140.800000
1478.000000	147.791710	1.875825	197906.537723	140.830000
1479.000000	147.891770	1.876870	198158.457468	140.830000
1480.000000	147.991655	1.876243	198007.305621	140.830000
1481.000000	148.091600	1.875929	197931.729697	140.840000
1482.000000	148.191620	1.876138	197982.113646	140.840000
1483.000000	148.291579	1.876034	197956.921672	140.840000
1484.000000	148.391590	1.876243	198007.305621	140.870000
1485.000000	148.491605	1.875929	197931.729697	140.880000
1486.000000	148.591551	1.876034	197956.921672	140.920000
1487.000000	148.691567	1.876452	198057.689570	140.970000
1488.000000	148.791590	1.876452	198057.689570	141.010000
1489.000000	148.891439	1.876138	197982.113646	141.050000
1490.000000	148.991441	1.876034	197956.921672	141.070000
1491.000000	149.091567	1.876347	198032.497596	141.080000
1492.000000	149.191571	1.876243	198007.305621	141.090000
1493.000000	149.291536	1.876243	198007.305621	141.090000
1494.000000	149.391549	1.876243	198007.305621	141.110000
1495.000000	149.491547	1.877079	198208.841417	141.120000
1496.000000	149.591526	1.876243	198007.305621	141.160000
1497.000000	149.691536	1.876347	198032.497596	141.200000
1498.000000	149.791537	1.876347	198032.497596	141.240000
1499.000000	149.891500	1.876347	198032.497596	141.290000
1500.000000	149.991362	1.876347	198032.497596	141.350000
1501.000000	150.091511	1.876765	198133.265494	141.380000
1502.000000	150.191308	1.876556	198082.881545	141.400000
1503.000000	150.291497	1.876661	198108.073519	141.430000
1504.000000	150.391473	1.875825	197906.537723	141.450000
1505.000000	150.491491	1.875511	197830.961799	141.470000
1506.000000	150.591475	1.876347	198032.497596	141.470000
1507.000000	150.691472	1.876138	197982.113646	141.500000
1508.000000	150.791459	1.876138	197982.113646	141.530000
1509.000000	150.891473	1.876034	197956.921672	141.580000
1510.000000	150.991449	1.876452	198057.689570	141.610000
1511.000000	151.091425	1.876452	198057.689570	141.650000
1512.000000	151.191451	1.876034	197956.921672	141.670000
1513.000000	151.291240	1.876661	198108.073519	141.680000
1514.000000	151.391409	1.876347	198032.497596	141.680000
1515.000000	151.491430	1.876347	198032.497596	141.680000
1516.000000	151.591422	1.876452	198057.689570	141.680000
1517.000000	151.691402	1.876034	197956.921672	141.690000
1518.000000	151.791418	1.875825	197906.537723	141.710000
1519.000000	151.891407	1.875929	197931.729697	141.720000
1520.000000	151.991426	1.876347	198032.497596	141.760000
1521.000000	152.091410	1.876243	198007.305621	141.810000
1522.000000	152.191397	1.876138	197982.113646	141.840000
1523.000000	152.291364	1.875720	197881.345748	141.880000
1524.000000	152.391379	1.876034	197956.921672	141.910000
1525.000000	152.491379	1.875929	197931.729697	141.940000
1526.000000	152.591347	1.875616	197856.153774	141.960000
1527.000000	152.691362	1.875616	197856.153774	141.950000
1528.000000	152.791353	1.875929	197931.729697	141.980000
1529.000000	152.891320	1.876243	198007.305621	142.010000
1530.000000	152.991313	1.876243	198007.305621	142.050000
1531.000000	153.091347	1.875720	197881.345748	142.100000
1532.000000	153.191308	1.876243	198007.305621	142.170000
1533.000000	153.291339	1.876347	198032.497596	142.220000
1534.000000	153.391325	1.876034	197956.921672	142.270000
1535.000000	153.491304	1.875825	197906.537723	142.300000
1536.000000	153.591313	1.876034	197956.921672	142.300000
1537.000000	153.691301	1.875720	197881.345748	142.310000
1538.000000	153.791304	1.876347	198032.497596	142.310000
1539.000000	153.891297	1.876034	197956.921672	142.320000
1540.000000	153.991296	1.875720	197881.345748	142.320000
1541.000000	154.091255	1.875407	197805.769825	142.350000
1542.000000	154.191282	1.876034	197956.921672	142.360000
1543.000000	154.291271	1.875511	197830.961799	142.390000
1544.000000	154.391241	1.876243	198007.305621	142.410000
1545.000000	154.491267	1.876452	198057.689570	142.430000
1546.000000	154.591268	1.875511	197830.961799	142.460000
1547.000000	154.691090	1.875929	197931.729697	142.480000
1548.000000	154.791240	1.875825	197906.537723	142.490000
1549.000000	154.891214	1.875825	197906.537723	142.500000
1550.000000	154.991223	1.875720	197881.345748	142.520000
1551.000000	155.091229	1.876034	197956.921672	142.530000
1552.000000	155.191221	1.875511	197830.961799	142.570000
1553.000000	155.291200	1.875929	197931.729697	142.610000
1554.000000	155.391210	1.876138	197982.113646	142.660000
1555.000000	155.491200	1.876347	198032.497596	142.720000
1556.000000	155.591170	1.875616	197856.153774	142.770000
1557.000000	155.691199	1.876243	198007.305621	142.800000
1558.000000	155.791185	1.875511	197830.961799	142.830000
1559.000000	155.891202	1.876034	197956.921672	142.840000
1560.000000	155.991142	1.875929	197931.729697	142.870000
1561.000000	156.091176	1.875825	197906.537723	142.890000
1562.000000	156.191140	1.875616	197856.153774	142.910000
1563.000000	156.291157	1.876347	198032.497596	142.940000
1564.000000	156.391142	1.875616	197856.153774	142.970000
1565.000000	156.491100	1.875825	197906.537723	143.000000
1566.000000	156.591137	1.875825	197906.537723	143.020000
1567.000000	156.691145	1.876347	198032.497596	143.050000
1568.000000	156.791103	1.876347	198032.497596	143.080000
1569.000000	156.891129	1.875825	197906.537723	143.090000
1570.000000	156.991100	1.875929	197931.729697	143.090000
1571.000000	157.091080	1.876243	198007.305621	143.090000
1572.000000	157.191109	1.875720	197881.345748	143.100000
1573.000000	157.291107	1.876034	197956.921672	143.100000
1574.000000	157.391044	1.876138	197982.113646	143.130000
1575.000000	157.491096	1.875825	197906.537723	143.140000
1576.000000	157.591086	1.875929	197931.729697	143.180000
1577.000000	157.691050	1.875616	197856.153774	143.210000
1578.000000	157.791073	1.875929	197931.729697	143.250000
1579.000000	157.891067	1.875929	197931.729697	143.290000
1580.000000	157.991032	1.876034	197956.921672	143.330000
1581.000000	158.091059	1.876452	198057.689570	143.370000
1582.000000	158.191049	1.876034	197956.921672	143.400000
1583.000000	158.291009	1.876243	198007.305621	143.440000
1584.000000	158.391044	1.876347	198032.497596	143.460000
1585.000000	158.491036	1.875825	197906.537723	143.480000
1586.000000	158.590998	1.876034	197956.921672	143.490000
1587.000000	158.691029	1.876347	198032.497596	143.500000
1588.000000	158.791007	1.876661	198108.073519	143.530000
1589.000000	158.890987	1.876347	198032.497596	143.560000
1590.000000	158.991017	1.876243	198007.305621	143.590000
1591.000000	159.090922	1.876765	198133.265494	143.620000
1592.000000	159.190974	1.876452	198057.689570	143.670000
1593.000000	159.290993	1.876243	198007.305621	143.690000
1594.000000	159.390921	1.876661	198108.073519	143.730000
1595.000000	159.490962	1.875929	197931.729697	143.740000
1596.000000	159.590994	1.876243	198007.305621	143.770000
1597.000000	159.690966	1.876243	198007.305621	143.800000
1598.000000	159.790884	1.875825	197906.537723	143.810000
1599.000000	159.890954	1.875511	197830.961799	143.850000
1600.000000	159.990951	1.876138	197982.113646	143.860000
1601.000000	160.090923	1.875720	197881.345748	143.890000
1602.000000	160.190941	1.876556	198082.881545	143.910000
1603.000000	160.290892	1.876661	198108.073519	143.930000
1604.000000	160.390901	1.876243	198007.305621	143.920000
1605.000000	160.490925	1.876243	198007.305621	143.940000
1606.000000	160.590918	1.876034	197956.921672	143.960000
1607.000000	160.690884	1.875825	197906.537723	143.970000
1608.000000	160.790904	1.875825	197906.537723	144.000000
1609.000000	160.890901	1.876556	198082.881545	144.040000
1610.000000	160.990876	1.876243	198007.305621	144.070000
1611.000000	161.090883	1.876138	197982.113646	144.100000
1612.000000	161.190841	1.876347	198032.497596	144.140000
1613.000000	161.290861	1.876347	198032.497596	144.160000
1614.000000	161.390878	1.875825	197906.537723	144.190000
1615.000000	161.490818	1.876138	197982.113646	144.210000
1616.000000	161.590735	1.875929	197931.729697	144.220000
1617.000000	161.690865	1.876138	197982.113646	144.240000
1618.000000	161.790842	1.876034	197956.921672	144.280000
1619.000000	161.890820	1.876661	198108.073519	144.310000
1620.000000	161.990800	1.876243	198007.305621	144.340000
1621.000000	162.090830	1.875511	197830.961799	144.400000
1622.000000	162.190799	1.876034	197956.921672	144.430000
1623.000000	162.290804	1.876661	198108.073519	144.470000
1624.000000	162.390827	1.876138	197982.113646	144.500000
1625.000000	162.490801	1.876034	197956.921672	144.530000
1626.000000	162.590803	1.875720	197881.345748	144.550000
1627.000000	162.690806	1.876347	198032.497596	144.570000
1628.000000	162.790764	1.875929	197931.729697	144.600000
1629.000000	162.890799	1.876974	198183.649443	144.610000
1630.000000	162.990778	1.875929	197931.729697	144.620000
1631.000000	163.090749	1.875929	197931.729697	144.620000
1632.000000	163.190761	1.876138	197982.113646	144.630000
1633.000000	163.290785	1.876138	197982.113646	144.630000
1634.000000	163.390695	1.875929	197931.729697	144.650000
1635.000000	163.490670	1.875511	197830.961799	144.660000
1636.000000	163.590752	1.875616	197856.153774	144.680000
1637.000000	163.690669	1.876034	197956.921672	144.700000
1638.000000	163.790699	1.875616	197856.153774	144.730000
1639.000000	163.890753	1.876138	197982.113646	144.760000
1640.000000	163.990737	1.875616	197856.153774	144.810000
1641.000000	164.090708	1.876034	197956.921672	144.850000
1642.000000	164.190722	1.876138	197982.113646	144.890000
1643.000000	164.290665	1.876034	197956.921672	144.930000
1644.000000	164.390612	1.875511	197830.961799	144.960000
1645.000000	164.490689	1.875929	197931.729697	144.980000
1646.000000	164.590662	1.875929	197931.729697	145.000000
1647.000000	164.690591	1.875198	197755.385876	145.010000
1648.000000	164.790602	1.876243	198007.305621	145.030000
1649.000000	164.890486	1.875616	197856.153774	145.060000
1650.000000	164.990680	1.876034	197956.921672	145.100000
1651.000000	165.090593	1.875720	197881.345748	145.150000
1652.000000	165.190619	1.876138	197982.113646	145.190000
1653.000000	165.290685	1.875720	197881.345748	145.240000
1654.000000	165.390571	1.876034	197956.921672	145.260000
1655.000000	165.490618	1.875720	197881.345748	145.260000
1656.000000	165.590551	1.876347	198032.497596	145.270000
1657.000000	165.690545	1.875616	197856.153774	145.290000
1658.000000	165.790506	1.875511	197830.961799	145.290000
1659.000000	165.890673	1.876243	198007.305621	145.310000
1660.000000	165.990470	1.875825	197906.537723	145.330000
1661.000000	166.090494	1.875825	197906.537723	145.350000
1662.000000	166.190441	1.875720	197881.345748	145.360000
1663.000000	166.290415	1.875616	197856.153774	145.380000
1664.000000	166.390395	1.875720	197881.345748	145.400000
1665.000000	166.490401	1.876138	197982.113646	145.420000
1666.000000	166.590474	1.875511	197830.961799	145.440000
1667.000000	166.690573	1.876347	198032.497596	145.480000
1668.000000	166.790585	1.875929	197931.729697	145.520000
1669.000000	166.890600	1.875720	197881.345748	145.560000
1670.000000	166.990598	1.876243	198007.305621	145.610000
1671.000000	167.090481	1.875929	197931.729697	145.650000
1672.000000	167.190487	1.875511	197830.961799	145.680000
1673.000000	167.290472	1.876138	197982.113646	145.710000
1674.000000	167.390451	1.876243	198007.305621	145.720000
1675.000000	167.490469	1.875407	197805.769825	145.720000
1676.000000	167.590476	1.876034	197956.921672	145.720000
1677.000000	167.690459	1.876243	198007.305621	145.730000
1678.000000	167.790437	1.875825	197906.537723	145.730000
1679.000000	167.890426	1.875929	197931.729697	145.770000
1680.000000	167.990445	1.875825	197906.537723	145.800000
1681.000000	168.090413	1.875616	197856.153774	145.840000
1682.000000	168.190433	1.875825	197906.537723	145.890000
1683.000000	168.290403	1.876034	197956.921672	145.960000
1684.000000	168.390337	1.876034	197956.921672	146.000000
1685.000000	168.490393	1.875929	197931.729697	146.020000
1686.000000	168.590385	1.875720	197881.345748	146.030000
1687.000000	168.690403	1.876452	198057.689570	146.030000
1688.000000	168.790349	1.876138	197982.113646	146.060000
1689.000000	168.890489	1.876243	198007.305621	146.080000
1690.000000	168.990362	1.876556	198082.881545	146.080000
1691.000000	169.090351	1.876034	197956.921672	146.110000
1692.000000	169.190372	1.876347	198032.497596	146.130000
1693.000000	169.290345	1.876243	198007.305621	146.160000
1694.000000	169.390342	1.876243	198007.305621	146.190000
1695.000000	169.490339	1.875720	197881.345748	146.210000
1696.000000	169.590352	1.875825	197906.537723	146.240000
1697.000000	169.690365	1.875929	197931.729697	146.260000
1698.000000	169.790339	1.876556	198082.881545	146.300000
1699.000000	169.890334	1.875825	197906.537723	146.320000
1700.000000	169.990322	1.876034	197956.921672	146.350000
1701.000000	170.090292	1.876034	197956.921672	146.370000
1702.000000	170.190293	1.876347	198032.497596	146.390000
1703.000000	170.290290	1.875825	197906.537723	146.420000
1704.000000	170.390314	1.876243	198007.305621	146.440000
1705.000000	170.490271	1.875929	197931.729697	146.450000
1706.000000	170.590272	1.876347	198032.497596	146.480000
1707.000000	170.690257	1.876034	197956.921672	146.500000
1708.000000	170.790282	1.876347	198032.497596	146.510000
1709.000000	170.890290	1.876138	197982.113646	146.530000
1710.000000	170.990217	1.875720	197881.345748	146.560000
1711.000000	171.090255	1.876243	198007.305621	146.600000
1712.000000	171.190269	1.875929	197931.729697	146.650000
1713.000000	171.290232	1.876034	197956.921672	146.690000
1714.000000	171.390249	1.875825	197906.537723	146.750000
1715.000000	171.490223	1.876034	197956.921672	146.790000
1716.000000	171.590252	1.875511	197830.961799	146.820000
1717.000000	171.690211	1.876138	197982.113646	146.840000
1718.000000	171.790099	1.876243	198007.305621	146.850000
1719.000000	171.890285	1.876765	198133.265494	146.850000
1720.000000	171.990207	1.875929	197931.729697	146.860000
1721.000000	172.090215	1.875720	197881.345748	146.850000
1722.000000	172.190172	1.876138	197982.113646	146.850000
1723.000000	172.290224	1.875511	197830.961799	146.850000
1724.000000	172.390203	1.875825	197906.537723	146.880000
1725.000000	172.490165	1.875616	197856.153774	146.910000
1726.000000	172.590176	1.875720	197881.345748	146.950000
1727.000000	172.690212	1.876661	198108.073519	146.980000
1728.000000	172.790151	1.875825	197906.537723	147.030000
1729.000000	172.890142	1.875616	197856.153774	147.070000
1730.000000	172.990203	1.876034	197956.921672	147.100000
1731.000000	173.090057	1.875825	197906.537723	147.130000
1732.000000	173.190123	1.876243	198007.305621	147.160000
1733.000000	173.290144	1.875616	197856.153774	147.190000
1734.000000	173.390192	1.876034	197956.921672	147.200000
1735.000000	173.490094	1.875720	197881.345748	147.230000
1736.000000	173.590097	1.875616	197856.153774	147.260000
1737.000000	173.690168	1.875616	197856.153774	147.280000
1738.000000	173.790100	1.875616	197856.153774	147.300000
1739.000000	173.890230	1.875616	197856.153774	147.320000
1740.000000	173.990043	1.876138	197982.113646	147.350000
1741.000000	174.090067	1.875825	197906.537723	147.380000
1742.000000	174.190062	1.875825	197906.537723	147.400000
1743.000000	174.290098	1.875302	197780.577850	147.440000
1744.000000	174.390136	1.875825	197906.537723	147.470000
1745.000000	174.490123	1.876034	197956.921672	147.510000
1746.000000	174.590103	1.876034	197956.921672	147.530000
1747.000000	174.690118	1.875825	197906.537723	147.560000
1748.000000	174.790074	1.875929	197931.729697	147.580000
1749.000000	174.890107	1.875720	197881.345748	147.580000
1750.000000	174.990057	1.875616	197856.153774	147.580000
1751.000000	175.090071	1.875511	197830.961799	147.590000
1752.000000	175.190041	1.875929	197931.729697	147.590000
1753.000000	175.290023	1.875302	197780.577850	147.590000
1754.000000	175.390055	1.875929	197931.729697	147.620000
1755.000000	175.490069	1.875929	197931.729697	147.630000
1756.000000	175.590060	1.875720	197881.345748	147.670000
1757.000000	175.690028	1.876034	197956.921672	147.720000
1758.000000	175.790045	1.875616	197856.153774	147.780000
1759.000000	175.890045	1.876034	197956.921672	147.840000
1760.000000	175.990002	1.875825	197906.537723	147.890000
1761.000000	176.090036	1.876243	198007.305621	147.920000
1762.000000	176.189978	1.875616	197856.153774	147.930000
1763.000000	176.289964	1.875825	197906.537723	147.940000
1764.000000	176.390023	1.875616	197856.153774	147.940000
1765.000000	176.490004	1.875407	197805.769825	147.940000
1766.000000	176.589983	1.876347	198032.497596	147.960000
1767.000000	176.689999	1.875929	197931.729697	147.980000
1768.000000	176.789995	1.876138	197982.113646	148.010000
1769.000000	176.889956	1.875720	197881.345748	148.040000
1770.000000	176.989906	1.875825	197906.537723	148.080000
1771.000000	177.089941	1.875929	197931.729697	148.120000
1772.000000	177.189951	1.875616	197856.153774	148.170000
1773.000000	177.289965	1.875929	197931.729697	148.200000
1774.000000	177.389900	1.875825	197906.537723	148.220000
1775.000000	177.489939	1.875720	197881.345748	148.240000
1776.000000	177.589900	1.875616	197856.153774	148.250000
1777.000000	177.689945	1.875720	197881.345748	148.270000
1778.000000	177.789958	1.875616	197856.153774	148.290000
1779.000000	177.889949	1.875302	197780.577850	148.330000
1780.000000	177.989935	1.876034	197956.921672	148.370000
1781.000000	178.089900	1.875511	197830.961799	148.400000
1782.000000	178.189929	1.875616	197856.153774	148.440000
1783.000000	178.289911	1.876243	198007.305621	148.440000
1784.000000	178.389878	1.875720	197881.345748	148.440000
1785.000000	178.489915	1.875616	197856.153774	148.440000
1786.000000	178.589900	1.876034	197956.921672	148.450000
1787.000000	178.689748	1.875720	197881.345748	148.460000
1788.000000	178.789763	1.876243	198007.305621	148.490000
1789.000000	178.889930	1.875720	197881.345748	148.530000
1790.000000	178.989743	1.876452	198057.689570	148.580000
1791.000000	179.089878	1.875825	197906.537723	148.630000
1792.000000	179.189855	1.875511	197830.961799	148.680000
1793.000000	179.289828	1.876034	197956.921672	148.710000
1794.000000	179.389846	1.875825	197906.537723	148.710000
1795.000000	179.489839	1.875929	197931.729697	148.720000
1796.000000	179.589808	1.876138	197982.113646	148.720000
1797.000000	179.689805	1.876347	198032.497596	148.720000
1798.000000	179.789819	1.876138	197982.113646	148.720000
1799.000000	179.889665	1.875929	197931.729697	148.760000
1800.000000	179.989769	1.876034	197956.921672	148.800000
