2023-01-05	11:20:58	Data rate [Hz]	10	
Sample Nb.	Measurement time	Voltage	Pressure	Weight
[-]	[s]	[V]	[Pa]	[g]
1.000000	0.099883	3.553520	602288.112978	0.000000
2.000000	0.199755	3.553520	602288.112978	0.000000
3.000000	0.299714	3.553206	602212.537054	0.000000
4.000000	0.399728	3.553520	602288.112978	1185.510000
5.000000	0.499743	3.553206	602212.537054	1185.630000
6.000000	0.599755	3.553206	602212.537054	1185.760000
7.000000	0.699706	3.553311	602237.729029	1185.900000
8.000000	0.799799	3.553415	602262.921003	1186.020000
9.000000	0.899762	3.553624	602313.304952	1186.150000
10.000000	0.999812	3.553206	602212.537054	1186.270000
11.000000	1.099760	3.552893	602136.961131	1186.400000
12.000000	1.199700	3.553102	602187.345080	1186.520000
13.000000	1.299743	3.553206	602212.537054	1186.650000
14.000000	1.399866	3.552997	602162.153105	1186.780000
15.000000	1.499856	3.552893	602136.961131	1186.920000
16.000000	1.599821	3.552788	602111.769156	1187.030000
17.000000	1.699847	3.553206	602212.537054	1187.160000
18.000000	1.799842	3.552893	602136.961131	1187.280000
19.000000	1.899796	3.553311	602237.729029	1187.420000
20.000000	1.999827	3.552684	602086.577182	1187.540000
21.000000	2.099824	3.553415	602262.921003	1187.680000
22.000000	2.199773	3.553311	602237.729029	1187.800000
23.000000	2.299821	3.552997	602162.153105	1187.920000
24.000000	2.399800	3.552997	602162.153105	1188.040000
25.000000	2.499783	3.552579	602061.385207	1188.160000
26.000000	2.599800	3.552788	602111.769156	1188.290000
27.000000	2.699798	3.552893	602136.961131	1188.430000
28.000000	2.799770	3.552684	602086.577182	1188.550000
29.000000	2.899774	3.552475	602036.193233	1188.670000
30.000000	2.999722	3.552475	602036.193233	1188.800000
31.000000	3.099758	3.553102	602187.345080	1188.930000
32.000000	3.199766	3.552997	602162.153105	1189.060000
33.000000	3.299739	3.553206	602212.537054	1189.190000
34.000000	3.399697	3.553206	602212.537054	1189.330000
35.000000	3.499750	3.552475	602036.193233	1189.450000
36.000000	3.599712	3.552684	602086.577182	1189.580000
37.000000	3.699652	3.552370	602011.001258	1189.690000
38.000000	3.799563	3.552788	602111.769156	1189.820000
39.000000	3.899622	3.552579	602061.385207	1189.960000
40.000000	3.999699	3.552684	602086.577182	1190.090000
41.000000	4.099606	3.552579	602061.385207	1190.210000
42.000000	4.199748	3.552475	602036.193233	1190.340000
43.000000	4.299789	3.552475	602036.193233	1190.460000
44.000000	4.399737	3.552684	602086.577182	1190.580000
45.000000	4.499691	3.552684	602086.577182	1190.710000
46.000000	4.599742	3.551952	601910.233360	1190.850000
47.000000	4.699552	3.552475	602036.193233	1190.970000
48.000000	4.799520	3.552057	601935.425334	1191.090000
49.000000	4.899487	3.552161	601960.617309	1191.210000
50.000000	4.999637	3.552370	602011.001258	1191.350000
51.000000	5.099528	3.552475	602036.193233	1191.470000
52.000000	5.199498	3.552266	601985.809284	1191.600000
53.000000	5.299494	3.552057	601935.425334	1191.740000
54.000000	5.399586	3.552684	602086.577182	1191.860000
55.000000	5.499694	3.552370	602011.001258	1191.980000
56.000000	5.599726	3.552475	602036.193233	1192.100000
57.000000	5.699547	3.552161	601960.617309	1192.240000
58.000000	5.799593	3.552266	601985.809284	1192.370000
59.000000	5.899715	3.552266	601985.809284	1192.500000
60.000000	5.999560	3.552057	601935.425334	1192.620000
61.000000	6.099584	3.552266	601985.809284	1192.750000
62.000000	6.199599	3.552266	601985.809284	1192.870000
63.000000	6.299584	3.552161	601960.617309	1193.010000
64.000000	6.399556	3.551743	601859.849411	1193.130000
65.000000	6.499587	3.551952	601910.233360	1193.270000
66.000000	6.599578	3.552161	601960.617309	1193.390000
67.000000	6.699537	3.552161	601960.617309	1193.510000
68.000000	6.799528	3.551743	601859.849411	1193.630000
69.000000	6.899618	3.552475	602036.193233	1193.750000
70.000000	6.999453	3.552370	602011.001258	1193.890000
71.000000	7.099538	3.551639	601834.657436	1194.010000
72.000000	7.199530	3.552370	602011.001258	1194.150000
73.000000	7.299504	3.552266	601985.809284	1194.270000
74.000000	7.399525	3.552266	601985.809284	1194.400000
75.000000	7.499416	3.552266	601985.809284	1194.510000
76.000000	7.599503	3.551848	601885.041385	1194.640000
77.000000	7.699501	3.552684	602086.577182	1194.780000
78.000000	7.799358	3.552161	601960.617309	1194.900000
79.000000	7.899486	3.552057	601935.425334	1195.030000
80.000000	7.999295	3.551743	601859.849411	1195.150000
81.000000	8.099480	3.551848	601885.041385	1195.270000
82.000000	8.199438	3.552161	601960.617309	1195.400000
83.000000	8.299465	3.552161	601960.617309	1195.530000
84.000000	8.399462	3.551743	601859.849411	1195.660000
85.000000	8.499414	3.551848	601885.041385	1195.800000
86.000000	8.599454	3.551952	601910.233360	1195.920000
87.000000	8.699455	3.552057	601935.425334	1196.050000
88.000000	8.799447	3.551848	601885.041385	1196.160000
89.000000	8.899462	3.551743	601859.849411	1196.300000
90.000000	8.999341	3.552161	601960.617309	1196.420000
91.000000	9.099398	3.551325	601759.081513	1196.550000
92.000000	9.199425	3.551952	601910.233360	1196.680000
93.000000	9.299419	3.552475	602036.193233	1196.800000
94.000000	9.399371	3.551743	601859.849411	1196.920000
95.000000	9.499409	3.551848	601885.041385	1197.050000
96.000000	9.599410	3.551743	601859.849411	1197.170000
97.000000	9.699374	3.552161	601960.617309	1197.310000
98.000000	9.799532	3.551430	601784.273487	1197.440000
99.000000	9.899346	3.551639	601834.657436	1197.560000
100.000000	9.999376	3.551639	601834.657436	1197.680000
101.000000	10.099382	3.552266	601985.809284	1197.810000
102.000000	10.199358	3.551325	601759.081513	1197.930000
103.000000	10.299371	3.551639	601834.657436	1198.070000
104.000000	10.399366	3.551743	601859.849411	1198.200000
105.000000	10.499360	3.551325	601759.081513	1198.320000
106.000000	10.599321	3.551116	601708.697564	1198.450000
107.000000	10.699344	3.551848	601885.041385	1198.570000
108.000000	10.799340	3.551534	601809.465462	1198.690000
109.000000	10.899309	3.551952	601910.233360	1198.830000
110.000000	10.999335	3.551325	601759.081513	1198.960000
111.000000	11.099322	3.551743	601859.849411	1199.080000
112.000000	11.199297	3.551221	601733.889538	1199.210000
113.000000	11.299317	3.551011	601683.505589	1199.320000
114.000000	11.399314	3.551430	601784.273487	1199.450000
115.000000	11.499270	3.550698	601607.929665	1199.580000
116.000000	11.599309	3.552057	601935.425334	1199.720000
117.000000	11.699290	3.551325	601759.081513	1199.840000
118.000000	11.799260	3.550907	601658.313615	1199.970000
119.000000	11.899281	3.551221	601733.889538	1200.080000
120.000000	11.999242	3.551011	601683.505589	1200.210000
121.000000	12.099212	3.551325	601759.081513	1200.350000
122.000000	12.199240	3.551325	601759.081513	1200.470000
123.000000	12.299236	3.550698	601607.929665	1200.600000
124.000000	12.399165	3.551116	601708.697564	1200.730000
125.000000	12.499213	3.551011	601683.505589	1200.850000
126.000000	12.599243	3.551325	601759.081513	1200.970000
127.000000	12.699020	3.551325	601759.081513	1201.100000
128.000000	12.799225	3.550802	601633.121640	1201.230000
129.000000	12.899220	3.551011	601683.505589	1201.370000
130.000000	12.999184	3.551221	601733.889538	1201.490000
131.000000	13.099160	3.551011	601683.505589	1201.610000
132.000000	13.199160	3.551325	601759.081513	1201.740000
133.000000	13.299164	3.551116	601708.697564	1201.860000
134.000000	13.399184	3.550802	601633.121640	1201.980000
135.000000	13.499183	3.551116	601708.697564	1202.120000
136.000000	13.599156	3.551325	601759.081513	1202.260000
137.000000	13.699177	3.550698	601607.929665	1202.380000
138.000000	13.799063	3.550907	601658.313615	1202.490000
139.000000	13.899134	3.551011	601683.505589	1202.620000
140.000000	13.998978	3.550698	601607.929665	1202.740000
141.000000	14.098964	3.550489	601557.545716	1202.870000
142.000000	14.199091	3.550593	601582.737691	1203.010000
143.000000	14.299121	3.550802	601633.121640	1203.130000
144.000000	14.398873	3.550280	601507.161767	1203.260000
145.000000	14.499096	3.550384	601532.353742	1203.380000
146.000000	14.599106	3.550489	601557.545716	1203.500000
147.000000	14.699110	3.549862	601406.393869	1203.630000
148.000000	14.799080	3.550489	601557.545716	1203.760000
149.000000	14.899108	3.550698	601607.929665	1203.890000
150.000000	14.999068	3.550384	601532.353742	1204.010000
151.000000	15.099077	3.550593	601582.737691	1204.140000
152.000000	15.199024	3.550802	601633.121640	1204.260000
153.000000	15.299098	3.549862	601406.393869	1204.390000
154.000000	15.399046	3.550489	601557.545716	1204.520000
155.000000	15.499058	3.550071	601456.777818	1204.650000
156.000000	15.599011	3.550071	601456.777818	1204.780000
157.000000	15.699075	3.550175	601481.969793	1204.900000
158.000000	15.799025	3.550280	601507.161767	1205.020000
159.000000	15.898994	3.549862	601406.393869	1205.150000
160.000000	15.999118	3.549966	601431.585844	1205.280000
161.000000	16.099031	3.550071	601456.777818	1205.410000
162.000000	16.198987	3.550907	601658.313615	1205.540000
163.000000	16.298963	3.549757	601381.201895	1205.660000
164.000000	16.398999	3.550071	601456.777818	1205.790000
165.000000	16.499012	3.550175	601481.969793	1205.900000
166.000000	16.599007	3.549757	601381.201895	1206.030000
167.000000	16.698994	3.549548	601330.817946	1206.160000
168.000000	16.798994	3.549444	601305.625971	1206.300000
169.000000	16.898962	3.549757	601381.201895	1206.420000
170.000000	16.998862	3.549966	601431.585844	1206.540000
171.000000	17.098976	3.549757	601381.201895	1206.670000
172.000000	17.198821	3.549757	601381.201895	1206.790000
173.000000	17.298959	3.549339	601280.433996	1206.920000
174.000000	17.398880	3.549444	601305.625971	1207.050000
175.000000	17.498915	3.549235	601255.242022	1207.180000
176.000000	17.598939	3.549339	601280.433996	1207.300000
177.000000	17.698940	3.549339	601280.433996	1207.420000
178.000000	17.798904	3.549235	601255.242022	1207.540000
179.000000	17.898927	3.549339	601280.433996	1207.670000
180.000000	17.998712	3.549548	601330.817946	1207.800000
181.000000	18.098865	3.549653	601356.009920	1207.930000
182.000000	18.198703	3.549235	601255.242022	1208.060000
183.000000	18.298913	3.549339	601280.433996	1208.180000
184.000000	18.398868	3.549235	601255.242022	1208.300000
185.000000	18.498901	3.549026	601204.858073	1208.420000
186.000000	18.598911	3.548921	601179.666098	1208.560000
187.000000	18.698878	3.549548	601330.817946	1208.690000
188.000000	18.798881	3.549339	601280.433996	1208.820000
189.000000	18.898882	3.549130	601230.050047	1208.940000
190.000000	18.998754	3.549444	601305.625971	1209.060000
191.000000	19.098873	3.549235	601255.242022	1209.180000
192.000000	19.198677	3.548921	601179.666098	1209.310000
193.000000	19.298831	3.548817	601154.474124	1209.440000
194.000000	19.398846	3.549339	601280.433996	1209.580000
195.000000	19.498850	3.549235	601255.242022	1209.700000
196.000000	19.598822	3.549026	601204.858073	1209.820000
197.000000	19.698839	3.549235	601255.242022	1209.940000
198.000000	19.798816	3.548921	601179.666098	1210.070000
199.000000	19.898765	3.549130	601230.050047	1210.200000
200.000000	19.998819	3.549235	601255.242022	1210.320000
201.000000	20.098809	3.549026	601204.858073	1210.450000
202.000000	20.198745	3.549235	601255.242022	1210.580000
203.000000	20.298809	3.548921	601179.666098	1210.700000
204.000000	20.398800	3.549339	601280.433996	1210.820000
205.000000	20.498752	3.548503	601078.898200	1210.950000
206.000000	20.598778	3.548503	601078.898200	1211.090000
207.000000	20.698774	3.549235	601255.242022	1211.210000
208.000000	20.798756	3.548921	601179.666098	1211.340000
209.000000	20.898767	3.548817	601154.474124	1211.460000
210.000000	20.998720	3.548817	601154.474124	1211.580000
211.000000	21.098727	3.548817	601154.474124	1211.710000
212.000000	21.198747	3.549130	601230.050047	1211.840000
213.000000	21.298708	3.549026	601204.858073	1211.970000
214.000000	21.398752	3.549026	601204.858073	1212.090000
215.000000	21.498733	3.548712	601129.282149	1212.220000
216.000000	21.598724	3.549026	601204.858073	1212.340000
217.000000	21.698572	3.548712	601129.282149	1212.470000
218.000000	21.798712	3.548608	601104.090175	1212.590000
219.000000	21.898649	3.549235	601255.242022	1212.720000
220.000000	21.998676	3.548608	601104.090175	1212.850000
221.000000	22.098629	3.548921	601179.666098	1212.980000
222.000000	22.198667	3.548712	601129.282149	1213.110000
223.000000	22.298768	3.549130	601230.050047	1213.220000
224.000000	22.398736	3.548503	601078.898200	1213.340000
225.000000	22.498643	3.548085	600978.130302	1213.480000
226.000000	22.598588	3.548399	601053.706226	1213.610000
227.000000	22.698506	3.548921	601179.666098	1213.740000
228.000000	22.798511	3.549026	601204.858073	1213.860000
229.000000	22.898684	3.548190	601003.322277	1213.980000
230.000000	22.998739	3.548503	601078.898200	1214.110000
231.000000	23.098685	3.548921	601179.666098	1214.240000
232.000000	23.198671	3.549235	601255.242022	1214.360000
233.000000	23.298683	3.548608	601104.090175	1214.490000
234.000000	23.398620	3.547771	600902.554378	1214.620000
235.000000	23.498558	3.548921	601179.666098	1214.740000
236.000000	23.598604	3.548712	601129.282149	1214.860000
237.000000	23.698585	3.548085	600978.130302	1214.990000
238.000000	23.798519	3.548294	601028.514251	1215.120000
239.000000	23.898554	3.548712	601129.282149	1215.250000
240.000000	23.998469	3.548503	601078.898200	1215.380000
241.000000	24.098442	3.548294	601028.514251	1215.500000
242.000000	24.198328	3.547876	600927.746353	1215.630000
243.000000	24.298402	3.548608	601104.090175	1215.750000
244.000000	24.398478	3.548190	601003.322277	1215.880000
245.000000	24.498628	3.548085	600978.130302	1216.010000
246.000000	24.598611	3.548712	601129.282149	1216.140000
247.000000	24.698644	3.548294	601028.514251	1216.260000
248.000000	24.798634	3.548294	601028.514251	1216.380000
249.000000	24.898646	3.548503	601078.898200	1216.510000
250.000000	24.998507	3.548503	601078.898200	1216.630000
251.000000	25.098517	3.548608	601104.090175	1216.760000
252.000000	25.198535	3.548190	601003.322277	1216.890000
253.000000	25.298484	3.548399	601053.706226	1217.020000
254.000000	25.398486	3.548294	601028.514251	1217.140000
255.000000	25.498487	3.548294	601028.514251	1217.260000
256.000000	25.598499	3.548190	601003.322277	1217.380000
257.000000	25.698321	3.548294	601028.514251	1217.510000
258.000000	25.798408	3.548503	601078.898200	1217.640000
259.000000	25.898445	3.547981	600952.938328	1217.780000
260.000000	25.998462	3.548085	600978.130302	1217.910000
261.000000	26.098356	3.548190	601003.322277	1218.030000
262.000000	26.198412	3.547981	600952.938328	1218.140000
263.000000	26.298445	3.548399	601053.706226	1218.270000
264.000000	26.398433	3.548294	601028.514251	1218.400000
265.000000	26.498410	3.548399	601053.706226	1218.530000
266.000000	26.598436	3.547981	600952.938328	1218.660000
267.000000	26.698426	3.548085	600978.130302	1218.790000
268.000000	26.798385	3.548190	601003.322277	1218.910000
269.000000	26.898417	3.547771	600902.554378	1219.030000
270.000000	26.998317	3.547771	600902.554378	1219.150000
271.000000	27.098390	3.547771	600902.554378	1219.280000
272.000000	27.198407	3.547981	600952.938328	1219.420000
273.000000	27.298293	3.547876	600927.746353	1219.550000
274.000000	27.398440	3.547981	600952.938328	1219.670000
275.000000	27.498371	3.548085	600978.130302	1219.780000
276.000000	27.598367	3.548085	600978.130302	1219.910000
277.000000	27.698343	3.547876	600927.746353	1220.040000
278.000000	27.798337	3.548085	600978.130302	1220.170000
279.000000	27.898354	3.548294	601028.514251	1220.310000
280.000000	27.998175	3.548085	600978.130302	1220.440000
281.000000	28.098318	3.547667	600877.362404	1220.560000
282.000000	28.198286	3.547562	600852.170429	1220.670000
283.000000	28.298305	3.548085	600978.130302	1220.800000
284.000000	28.398331	3.547458	600826.978455	1220.930000
285.000000	28.498066	3.547144	600751.402531	1221.060000
286.000000	28.598274	3.547458	600826.978455	1221.180000
287.000000	28.698330	3.547458	600826.978455	1221.300000
288.000000	28.798313	3.547667	600877.362404	1221.430000
289.000000	28.898277	3.547771	600902.554378	1221.550000
290.000000	28.998121	3.547562	600852.170429	1221.680000
291.000000	29.098283	3.547667	600877.362404	1221.810000
292.000000	29.198249	3.547458	600826.978455	1221.940000
293.000000	29.298294	3.547562	600852.170429	1222.060000
294.000000	29.398293	3.547353	600801.786480	1222.190000
295.000000	29.498252	3.547667	600877.362404	1222.310000
296.000000	29.598271	3.547562	600852.170429	1222.440000
297.000000	29.698262	3.548294	601028.514251	1222.570000
298.000000	29.798231	3.547040	600726.210557	1222.690000
299.000000	29.898250	3.547562	600852.170429	1222.820000
300.000000	29.998068	3.547771	600902.554378	1222.950000
301.000000	30.098216	3.547144	600751.402531	1223.060000
302.000000	30.198199	3.547667	600877.362404	1223.190000
303.000000	30.298221	3.547249	600776.594506	1223.320000
304.000000	30.398190	3.547144	600751.402531	1223.450000
305.000000	30.498219	3.547562	600852.170429	1223.580000
306.000000	30.598219	3.547458	600826.978455	1223.710000
307.000000	30.698026	3.547562	600852.170429	1223.840000
308.000000	30.798188	3.547249	600776.594506	1223.970000
309.000000	30.898197	3.547458	600826.978455	1224.080000
310.000000	30.998166	3.547040	600726.210557	1224.220000
311.000000	31.098168	3.546726	600650.634633	1224.340000
312.000000	31.198167	3.547249	600776.594506	1224.460000
313.000000	31.298186	3.547458	600826.978455	1224.580000
314.000000	31.398179	3.547040	600726.210557	1224.700000
315.000000	31.498152	3.547144	600751.402531	1224.830000
316.000000	31.598121	3.546831	600675.826608	1224.960000
317.000000	31.698146	3.546726	600650.634633	1225.080000
318.000000	31.798121	3.546831	600675.826608	1225.220000
319.000000	31.898103	3.546622	600625.442659	1225.350000
320.000000	31.998143	3.546308	600549.866735	1225.470000
321.000000	32.098123	3.547040	600726.210557	1225.590000
322.000000	32.198050	3.546413	600575.058709	1225.720000
323.000000	32.298095	3.546622	600625.442659	1225.840000
324.000000	32.398094	3.546831	600675.826608	1225.970000
325.000000	32.498055	3.546726	600650.634633	1226.090000
326.000000	32.598102	3.546726	600650.634633	1226.220000
327.000000	32.698095	3.546726	600650.634633	1226.340000
328.000000	32.798075	3.546935	600701.018582	1226.460000
329.000000	32.898079	3.546517	600600.250684	1226.590000
330.000000	32.997901	3.546726	600650.634633	1226.730000
331.000000	33.098036	3.546517	600600.250684	1226.860000
332.000000	33.198062	3.546204	600524.674760	1226.990000
333.000000	33.298058	3.546099	600499.482786	1227.100000
334.000000	33.398011	3.546413	600575.058709	1227.220000
335.000000	33.498044	3.546204	600524.674760	1227.350000
336.000000	33.598030	3.546308	600549.866735	1227.480000
337.000000	33.697990	3.546204	600524.674760	1227.610000
338.000000	33.798027	3.546204	600524.674760	1227.740000
339.000000	33.898046	3.546517	600600.250684	1227.860000
340.000000	33.997985	3.546413	600575.058709	1227.980000
341.000000	34.097999	3.546413	600575.058709	1228.100000
342.000000	34.197982	3.546204	600524.674760	1228.240000
343.000000	34.297973	3.546413	600575.058709	1228.370000
344.000000	34.397982	3.546308	600549.866735	1228.490000
345.000000	34.497986	3.546099	600499.482786	1228.620000
346.000000	34.597950	3.545890	600449.098837	1228.740000
347.000000	34.697978	3.546099	600499.482786	1228.860000
348.000000	34.797971	3.545681	600398.714888	1228.980000
349.000000	34.897963	3.546204	600524.674760	1229.110000
350.000000	34.997790	3.546099	600499.482786	1229.240000
351.000000	35.097958	3.546413	600575.058709	1229.370000
352.000000	35.197930	3.546308	600549.866735	1229.490000
353.000000	35.297945	3.546099	600499.482786	1229.610000
354.000000	35.397903	3.545890	600449.098837	1229.740000
355.000000	35.497889	3.546099	600499.482786	1229.880000
356.000000	35.597915	3.545890	600449.098837	1230.000000
357.000000	35.697935	3.545995	600474.290811	1230.130000
358.000000	35.797886	3.545995	600474.290811	1230.250000
359.000000	35.897906	3.545577	600373.522913	1230.370000
360.000000	35.997745	3.545890	600449.098837	1230.480000
361.000000	36.097862	3.545054	600247.563041	1230.610000
362.000000	36.197693	3.546204	600524.674760	1230.750000
363.000000	36.297897	3.545681	600398.714888	1230.880000
364.000000	36.397849	3.545577	600373.522913	1231.000000
365.000000	36.497876	3.545263	600297.946990	1231.130000
366.000000	36.597874	3.545577	600373.522913	1231.250000
367.000000	36.697823	3.545368	600323.138964	1231.370000
368.000000	36.797852	3.545786	600423.906862	1231.490000
369.000000	36.897841	3.545577	600373.522913	1231.620000
370.000000	36.997856	3.545368	600323.138964	1231.760000
371.000000	37.097835	3.545995	600474.290811	1231.890000
372.000000	37.197827	3.545681	600398.714888	1232.000000
373.000000	37.297795	3.545890	600449.098837	1232.120000
374.000000	37.397824	3.545368	600323.138964	1232.250000
375.000000	37.497800	3.545472	600348.330939	1232.380000
376.000000	37.597781	3.545054	600247.563041	1232.500000
377.000000	37.697801	3.545263	600297.946990	1232.630000
378.000000	37.797799	3.545368	600323.138964	1232.760000
379.000000	37.897762	3.545368	600323.138964	1232.880000
380.000000	37.997610	3.544845	600197.179091	1233.000000
381.000000	38.097776	3.545577	600373.522913	1233.130000
382.000000	38.197692	3.545368	600323.138964	1233.260000
383.000000	38.297782	3.544950	600222.371066	1233.390000
384.000000	38.397723	3.545159	600272.755015	1233.510000
385.000000	38.497718	3.545159	600272.755015	1233.640000
386.000000	38.597748	3.545159	600272.755015	1233.760000
387.000000	38.697696	3.545263	600297.946990	1233.880000
388.000000	38.797714	3.545472	600348.330939	1234.010000
389.000000	38.897742	3.545577	600373.522913	1234.140000
390.000000	38.997692	3.544741	600171.987117	1234.280000
391.000000	39.097695	3.544950	600222.371066	1234.400000
392.000000	39.197711	3.544950	600222.371066	1234.520000
393.000000	39.297706	3.545054	600247.563041	1234.640000
394.000000	39.397556	3.545263	600297.946990	1234.770000
395.000000	39.497557	3.545472	600348.330939	1234.900000
396.000000	39.597679	3.545054	600247.563041	1235.030000
397.000000	39.697620	3.545159	600272.755015	1235.150000
398.000000	39.797681	3.544950	600222.371066	1235.280000
399.000000	39.897695	3.544741	600171.987117	1235.400000
400.000000	39.997499	3.545159	600272.755015	1235.520000
401.000000	40.097615	3.545159	600272.755015	1235.650000
402.000000	40.197593	3.544741	600171.987117	1235.780000
403.000000	40.297615	3.544741	600171.987117	1235.920000
404.000000	40.397652	3.544741	600171.987117	1236.030000
405.000000	40.497629	3.545054	600247.563041	1236.150000
406.000000	40.597613	3.544427	600096.411193	1236.280000
407.000000	40.697639	3.544427	600096.411193	1236.400000
408.000000	40.797630	3.544636	600146.795142	1236.540000
409.000000	40.897570	3.545472	600348.330939	1236.670000
410.000000	40.997618	3.544636	600146.795142	1236.790000
411.000000	41.097615	3.544950	600222.371066	1236.920000
412.000000	41.197562	3.544427	600096.411193	1237.030000
413.000000	41.297580	3.544741	600171.987117	1237.160000
414.000000	41.397650	3.544845	600197.179091	1237.290000
415.000000	41.497508	3.544322	600071.219219	1237.420000
416.000000	41.597572	3.544636	600146.795142	1237.550000
417.000000	41.697430	3.544950	600222.371066	1237.660000
418.000000	41.797660	3.544218	600046.027244	1237.790000
419.000000	41.897550	3.544636	600146.795142	1237.910000
420.000000	41.997563	3.544636	600146.795142	1238.040000
421.000000	42.097548	3.544009	599995.643295	1238.160000
422.000000	42.197606	3.544845	600197.179091	1238.290000
423.000000	42.297625	3.544322	600071.219219	1238.420000
424.000000	42.397490	3.544322	600071.219219	1238.540000
425.000000	42.497513	3.544845	600197.179091	1238.650000
426.000000	42.597523	3.544322	600071.219219	1238.780000
427.000000	42.697339	3.544950	600222.371066	1238.920000
428.000000	42.797560	3.544531	600121.603168	1239.050000
429.000000	42.897378	3.544218	600046.027244	1239.170000
430.000000	42.997306	3.544636	600146.795142	1239.290000
431.000000	43.097376	3.544636	600146.795142	1239.420000
432.000000	43.197331	3.544741	600171.987117	1239.550000
433.000000	43.297328	3.544218	600046.027244	1239.670000
434.000000	43.397381	3.544322	600071.219219	1239.800000
435.000000	43.497568	3.544427	600096.411193	1239.940000
436.000000	43.597553	3.544741	600171.987117	1240.060000
437.000000	43.697524	3.544636	600146.795142	1240.180000
438.000000	43.797539	3.544741	600171.987117	1240.310000
439.000000	43.897522	3.544322	600071.219219	1240.440000
440.000000	43.997286	3.544218	600046.027244	1240.570000
441.000000	44.097432	3.544531	600121.603168	1240.690000
442.000000	44.197395	3.544322	600071.219219	1240.810000
443.000000	44.297381	3.543904	599970.451321	1240.940000
444.000000	44.397392	3.544845	600197.179091	1241.060000
445.000000	44.497395	3.544009	599995.643295	1241.170000
446.000000	44.597476	3.544009	599995.643295	1241.310000
447.000000	44.697393	3.544427	600096.411193	1241.450000
448.000000	44.797373	3.544322	600071.219219	1241.570000
449.000000	44.897379	3.544113	600020.835270	1241.690000
450.000000	44.997342	3.544741	600171.987117	1241.810000
451.000000	45.097343	3.544741	600171.987117	1241.930000
452.000000	45.197359	3.544845	600197.179091	1242.060000
453.000000	45.297353	3.544009	599995.643295	1242.180000
454.000000	45.397326	3.543695	599920.067372	1242.320000
455.000000	45.497320	3.544218	600046.027244	1242.440000
456.000000	45.597238	3.544322	600071.219219	1242.560000
457.000000	45.697315	3.544845	600197.179091	1242.690000
458.000000	45.797332	3.544218	600046.027244	1242.820000
459.000000	45.897328	3.543800	599945.259346	1242.950000
460.000000	45.997311	3.544218	600046.027244	1243.070000
461.000000	46.097327	3.544113	600020.835270	1243.190000
462.000000	46.197314	3.544322	600071.219219	1243.320000
463.000000	46.297275	3.543904	599970.451321	1243.440000
464.000000	46.397307	3.543695	599920.067372	1243.560000
465.000000	46.497304	3.544427	600096.411193	1243.690000
466.000000	46.597264	3.544009	599995.643295	1243.830000
467.000000	46.697299	3.543591	599894.875397	1243.970000
468.000000	46.797272	3.544113	600020.835270	1244.090000
469.000000	46.897244	3.544009	599995.643295	1244.200000
470.000000	46.997281	3.543382	599844.491448	1244.330000
471.000000	47.097253	3.543800	599945.259346	1244.450000
472.000000	47.197233	3.543904	599970.451321	1244.580000
473.000000	47.297253	3.543486	599869.683422	1244.710000
474.000000	47.397244	3.543800	599945.259346	1244.840000
475.000000	47.497208	3.543800	599945.259346	1244.960000
476.000000	47.597237	3.543800	599945.259346	1245.090000
477.000000	47.697221	3.543695	599920.067372	1245.210000
478.000000	47.797173	3.543695	599920.067372	1245.340000
479.000000	47.897194	3.543904	599970.451321	1245.460000
480.000000	47.997030	3.543904	599970.451321	1245.590000
481.000000	48.097167	3.543591	599894.875397	1245.720000
482.000000	48.197194	3.543695	599920.067372	1245.840000
483.000000	48.296993	3.543904	599970.451321	1245.960000
484.000000	48.397143	3.543904	599970.451321	1246.080000
485.000000	48.497135	3.543173	599794.107499	1246.210000
486.000000	48.597177	3.543068	599768.915524	1246.340000
487.000000	48.697130	3.543068	599768.915524	1246.480000
488.000000	48.797172	3.543382	599844.491448	1246.600000
489.000000	48.897175	3.543173	599794.107499	1246.710000
490.000000	48.997118	3.543173	599794.107499	1246.830000
491.000000	49.097123	3.543591	599894.875397	1246.960000
492.000000	49.197154	3.542964	599743.723550	1247.090000
493.000000	49.297112	3.543591	599894.875397	1247.220000
494.000000	49.397105	3.543277	599819.299473	1247.350000
495.000000	49.497101	3.543695	599920.067372	1247.470000
496.000000	49.597068	3.543695	599920.067372	1247.590000
497.000000	49.697071	3.543068	599768.915524	1247.710000
498.000000	49.797086	3.542964	599743.723550	1247.840000
499.000000	49.897071	3.543173	599794.107499	1247.980000
500.000000	49.997084	3.543173	599794.107499	1248.110000
501.000000	50.097088	3.543068	599768.915524	1248.220000
502.000000	50.197040	3.543173	599794.107499	1248.340000
503.000000	50.297072	3.543173	599794.107499	1248.470000
504.000000	50.397068	3.543173	599794.107499	1248.590000
505.000000	50.497042	3.543591	599894.875397	1248.720000
506.000000	50.597058	3.543068	599768.915524	1248.860000
507.000000	50.697073	3.543382	599844.491448	1248.990000
508.000000	50.797017	3.542755	599693.339601	1249.100000
509.000000	50.897023	3.542964	599743.723550	1249.220000
510.000000	50.997013	3.543068	599768.915524	1249.340000
511.000000	51.097009	3.543068	599768.915524	1249.470000
512.000000	51.197043	3.542441	599617.763677	1249.610000
513.000000	51.297030	3.542964	599743.723550	1249.740000
514.000000	51.396990	3.542859	599718.531575	1249.850000
515.000000	51.497015	3.542546	599642.955652	1249.970000
516.000000	51.597005	3.542546	599642.955652	1250.090000
517.000000	51.696821	3.542964	599743.723550	1250.220000
518.000000	51.796969	3.542441	599617.763677	1250.350000
519.000000	51.896987	3.542650	599668.147626	1250.480000
520.000000	51.996974	3.543173	599794.107499	1250.610000
521.000000	52.096983	3.542859	599718.531575	1250.720000
522.000000	52.196968	3.542546	599642.955652	1250.850000
523.000000	52.296910	3.542755	599693.339601	1250.970000
524.000000	52.396970	3.542755	599693.339601	1251.110000
525.000000	52.496957	3.542755	599693.339601	1251.230000
526.000000	52.596924	3.542232	599567.379728	1251.360000
527.000000	52.696730	3.542441	599617.763677	1251.490000
528.000000	52.796942	3.541919	599491.803804	1251.610000
529.000000	52.896882	3.542441	599617.763677	1251.720000
530.000000	52.996845	3.542755	599693.339601	1251.850000
531.000000	53.096926	3.542337	599592.571703	1251.970000
532.000000	53.196883	3.542337	599592.571703	1252.110000
533.000000	53.296906	3.542441	599617.763677	1252.240000
534.000000	53.396855	3.542128	599542.187754	1252.360000
535.000000	53.496865	3.542337	599592.571703	1252.480000
536.000000	53.596888	3.542546	599642.955652	1252.610000
537.000000	53.696893	3.542441	599617.763677	1252.740000
538.000000	53.796844	3.542232	599567.379728	1252.870000
539.000000	53.896817	3.542232	599567.379728	1252.990000
540.000000	53.996823	3.542337	599592.571703	1253.120000
541.000000	54.096811	3.542232	599567.379728	1253.250000
542.000000	54.196839	3.541814	599466.611830	1253.370000
543.000000	54.296872	3.542337	599592.571703	1253.480000
544.000000	54.396807	3.542128	599542.187754	1253.610000
545.000000	54.496834	3.542023	599516.995779	1253.740000
546.000000	54.596831	3.541501	599391.035906	1253.870000
547.000000	54.696788	3.542337	599592.571703	1253.990000
548.000000	54.796814	3.542128	599542.187754	1254.110000
549.000000	54.896813	3.542337	599592.571703	1254.240000
550.000000	54.996767	3.542232	599567.379728	1254.370000
551.000000	55.096819	3.541814	599466.611830	1254.490000
552.000000	55.196785	3.541919	599491.803804	1254.620000
553.000000	55.296785	3.541919	599491.803804	1254.750000
554.000000	55.396782	3.541919	599491.803804	1254.870000
555.000000	55.496810	3.542023	599516.995779	1254.990000
556.000000	55.596729	3.540978	599265.076034	1255.120000
557.000000	55.696793	3.541919	599491.803804	1255.240000
558.000000	55.796713	3.541710	599441.419855	1255.370000
559.000000	55.896740	3.541710	599441.419855	1255.500000
560.000000	55.996702	3.541187	599315.459983	1255.630000
561.000000	56.096772	3.541082	599290.268008	1255.740000
562.000000	56.196723	3.541187	599315.459983	1255.860000
563.000000	56.296749	3.541187	599315.459983	1255.990000
564.000000	56.396738	3.541501	599391.035906	1256.120000
565.000000	56.496690	3.541814	599466.611830	1256.240000
566.000000	56.596716	3.541501	599391.035906	1256.360000
567.000000	56.696706	3.541187	599315.459983	1256.480000
568.000000	56.796661	3.541396	599365.843932	1256.610000
569.000000	56.896669	3.540978	599265.076034	1256.720000
570.000000	56.996665	3.541814	599466.611830	1256.840000
571.000000	57.096656	3.540664	599189.500110	1256.970000
572.000000	57.196682	3.541291	599340.651957	1257.100000
573.000000	57.296476	3.541187	599315.459983	1257.230000
574.000000	57.396626	3.540978	599265.076034	1257.340000
575.000000	57.496662	3.540769	599214.692085	1257.460000
576.000000	57.596661	3.541082	599290.268008	1257.590000
577.000000	57.696602	3.540873	599239.884059	1257.730000
578.000000	57.796661	3.540873	599239.884059	1257.860000
579.000000	57.896664	3.540664	599189.500110	1258.010000
580.000000	57.996449	3.541291	599340.651957	1258.140000
581.000000	58.096626	3.540769	599214.692085	1258.260000
582.000000	58.196635	3.541082	599290.268008	1258.390000
583.000000	58.296464	3.540664	599189.500110	1258.510000
584.000000	58.396617	3.540978	599265.076034	1258.640000
585.000000	58.496625	3.540769	599214.692085	1258.760000
586.000000	58.596583	3.540873	599239.884059	1258.900000
587.000000	58.696610	3.540769	599214.692085	1259.020000
588.000000	58.796515	3.540560	599164.308135	1259.130000
589.000000	58.896550	3.540351	599113.924186	1259.250000
590.000000	58.996418	3.540246	599088.732212	1259.380000
591.000000	59.096570	3.541187	599315.459983	1259.510000
592.000000	59.196538	3.540769	599214.692085	1259.650000
593.000000	59.296558	3.539933	599013.156288	1259.770000
594.000000	59.396551	3.540455	599139.116161	1259.890000
595.000000	59.496499	3.540455	599139.116161	1260.010000
596.000000	59.596447	3.540351	599113.924186	1260.140000
597.000000	59.696567	3.540142	599063.540237	1260.260000
598.000000	59.796507	3.540664	599189.500110	1260.390000
599.000000	59.896530	3.540664	599189.500110	1260.520000
600.000000	59.996515	3.540664	599189.500110	1260.640000
601.000000	60.096463	3.540664	599189.500110	1260.760000
602.000000	60.196450	3.540351	599113.924186	1260.880000
603.000000	60.296597	3.540142	599063.540237	1261.010000
604.000000	60.396458	3.540246	599088.732212	1261.140000
605.000000	60.496457	3.539828	598987.964314	1261.270000
606.000000	60.596469	3.540246	599088.732212	1261.390000
607.000000	60.696374	3.540351	599113.924186	1261.520000
608.000000	60.796357	3.539933	599013.156288	1261.630000
609.000000	60.896486	3.539933	599013.156288	1261.750000
610.000000	60.996532	3.540246	599088.732212	1261.890000
611.000000	61.096500	3.540873	599239.884059	1262.020000
612.000000	61.196512	3.540455	599139.116161	1262.140000
613.000000	61.296315	3.540560	599164.308135	1262.260000
614.000000	61.396441	3.540455	599139.116161	1262.390000
615.000000	61.496413	3.540142	599063.540237	1262.510000
616.000000	61.596389	3.540142	599063.540237	1262.630000
617.000000	61.696416	3.540037	599038.348263	1262.770000
618.000000	61.796491	3.539515	598912.388390	1262.890000
619.000000	61.896329	3.540560	599164.308135	1263.020000
620.000000	61.996236	3.540037	599038.348263	1263.140000
621.000000	62.096233	3.540142	599063.540237	1263.270000
622.000000	62.196233	3.539933	599013.156288	1263.380000
623.000000	62.296236	3.540560	599164.308135	1263.510000
624.000000	62.396258	3.540560	599164.308135	1263.640000
625.000000	62.496425	3.540037	599038.348263	1263.770000
626.000000	62.596454	3.539828	598987.964314	1263.890000
627.000000	62.696457	3.539724	598962.772339	1264.010000
628.000000	62.796460	3.539933	599013.156288	1264.130000
629.000000	62.896467	3.539828	598987.964314	1264.270000
630.000000	62.996317	3.539933	599013.156288	1264.390000
631.000000	63.096331	3.539933	599013.156288	1264.520000
632.000000	63.196353	3.540246	599088.732212	1264.640000
633.000000	63.296342	3.539410	598887.196416	1264.760000
634.000000	63.396309	3.539515	598912.388390	1264.880000
635.000000	63.496329	3.539306	598862.004441	1265.010000
636.000000	63.596332	3.539619	598937.580365	1265.140000
637.000000	63.696288	3.539410	598887.196416	1265.270000
638.000000	63.796405	3.539828	598987.964314	1265.390000
639.000000	63.896299	3.539515	598912.388390	1265.520000
640.000000	63.996275	3.539933	599013.156288	1265.640000
641.000000	64.096311	3.539828	598987.964314	1265.760000
642.000000	64.196289	3.539410	598887.196416	1265.880000
643.000000	64.296247	3.539306	598862.004441	1266.020000
644.000000	64.396270	3.539724	598962.772339	1266.150000
645.000000	64.496280	3.539933	599013.156288	1266.270000
646.000000	64.596248	3.539515	598912.388390	1266.390000
647.000000	64.696265	3.539515	598912.388390	1266.510000
648.000000	64.796309	3.539201	598836.812466	1266.630000
649.000000	64.896215	3.539828	598987.964314	1266.760000
650.000000	64.996131	3.539619	598937.580365	1266.890000
651.000000	65.096074	3.539410	598887.196416	1267.020000
652.000000	65.196181	3.539515	598912.388390	1267.150000
653.000000	65.296197	3.539828	598987.964314	1267.260000
654.000000	65.396224	3.539097	598811.620492	1267.380000
655.000000	65.496178	3.539410	598887.196416	1267.520000
656.000000	65.596197	3.539515	598912.388390	1267.640000
657.000000	65.696203	3.539201	598836.812466	1267.760000
658.000000	65.796164	3.539306	598862.004441	1267.890000
659.000000	65.896190	3.539619	598937.580365	1268.010000
660.000000	65.996145	3.539306	598862.004441	1268.130000
661.000000	66.096134	3.539515	598912.388390	1268.260000
662.000000	66.196178	3.539410	598887.196416	1268.380000
663.000000	66.296142	3.540037	599038.348263	1268.520000
664.000000	66.396145	3.539306	598862.004441	1268.640000
665.000000	66.496165	3.539306	598862.004441	1268.760000
666.000000	66.596163	3.539619	598937.580365	1268.880000
667.000000	66.696004	3.539097	598811.620492	1269.010000
668.000000	66.796135	3.539515	598912.388390	1269.130000
669.000000	66.896127	3.539097	598811.620492	1269.260000
670.000000	66.996122	3.539619	598937.580365	1269.400000
671.000000	67.096101	3.539724	598962.772339	1269.520000
672.000000	67.196076	3.539306	598862.004441	1269.630000
673.000000	67.296101	3.539410	598887.196416	1269.760000
674.000000	67.396122	3.539410	598887.196416	1269.880000
675.000000	67.496109	3.539619	598937.580365	1270.000000
676.000000	67.596070	3.538888	598761.236543	1270.130000
677.000000	67.696096	3.539306	598862.004441	1270.260000
678.000000	67.796087	3.538888	598761.236543	1270.380000
679.000000	67.896063	3.538783	598736.044568	1270.510000
680.000000	67.995895	3.539410	598887.196416	1270.620000
681.000000	68.096074	3.539306	598862.004441	1270.760000
682.000000	68.196041	3.539306	598862.004441	1270.880000
683.000000	68.296068	3.539097	598811.620492	1271.010000
684.000000	68.396016	3.539097	598811.620492	1271.140000
685.000000	68.496004	3.539306	598862.004441	1271.260000
686.000000	68.595949	3.538783	598736.044568	1271.380000
687.000000	68.696044	3.538992	598786.428517	1271.500000
688.000000	68.795998	3.538679	598710.852594	1271.620000
689.000000	68.896026	3.538783	598736.044568	1271.760000
690.000000	68.995988	3.538783	598736.044568	1271.890000
691.000000	69.095968	3.538888	598761.236543	1272.010000
692.000000	69.195979	3.539097	598811.620492	1272.130000
693.000000	69.296018	3.538679	598710.852594	1272.250000
694.000000	69.395969	3.538783	598736.044568	1272.380000
695.000000	69.495988	3.538992	598786.428517	1272.500000
696.000000	69.595989	3.538992	598786.428517	1272.640000
697.000000	69.695961	3.538888	598761.236543	1272.760000
698.000000	69.795988	3.538679	598710.852594	1272.880000
699.000000	69.895918	3.538783	598736.044568	1273.000000
700.000000	69.995928	3.538365	598635.276670	1273.120000
701.000000	70.095959	3.538783	598736.044568	1273.250000
702.000000	70.195744	3.538679	598710.852594	1273.370000
703.000000	70.295902	3.538992	598786.428517	1273.500000
704.000000	70.395944	3.538574	598685.660619	1273.640000
705.000000	70.495927	3.538470	598660.468645	1273.760000
706.000000	70.595897	3.538783	598736.044568	1273.880000
707.000000	70.695923	3.538574	598685.660619	1273.990000
708.000000	70.795959	3.538783	598736.044568	1274.120000
709.000000	70.895872	3.538783	598736.044568	1274.260000
710.000000	70.995855	3.538574	598685.660619	1274.380000
711.000000	71.095795	3.538574	598685.660619	1274.510000
712.000000	71.195837	3.538365	598635.276670	1274.630000
713.000000	71.295894	3.538365	598635.276670	1274.740000
714.000000	71.395881	3.538051	598559.700747	1274.870000
715.000000	71.495861	3.538261	598610.084696	1274.990000
716.000000	71.595862	3.538261	598610.084696	1275.130000
717.000000	71.695852	3.538470	598660.468645	1275.250000
718.000000	71.795831	3.538051	598559.700747	1275.370000
719.000000	71.895842	3.538574	598685.660619	1275.500000
720.000000	71.995800	3.538365	598635.276670	1275.620000
721.000000	72.095798	3.538156	598584.892721	1275.750000
722.000000	72.195840	3.538051	598559.700747	1275.870000
723.000000	72.295830	3.538051	598559.700747	1276.000000
724.000000	72.395798	3.538156	598584.892721	1276.130000
725.000000	72.495820	3.538156	598584.892721	1276.240000
726.000000	72.595800	3.538051	598559.700747	1276.360000
727.000000	72.695773	3.538574	598685.660619	1276.490000
728.000000	72.795768	3.537947	598534.508772	1276.620000
729.000000	72.895784	3.537842	598509.316798	1276.750000
730.000000	72.995761	3.537947	598534.508772	1276.880000
731.000000	73.095713	3.538156	598584.892721	1277.000000
732.000000	73.195761	3.538574	598685.660619	1277.120000
733.000000	73.295729	3.537424	598408.548899	1277.240000
734.000000	73.395762	3.537320	598383.356925	1277.360000
735.000000	73.495751	3.537947	598534.508772	1277.500000
736.000000	73.595720	3.538574	598685.660619	1277.620000
737.000000	73.695736	3.538051	598559.700747	1277.740000
738.000000	73.795758	3.537320	598383.356925	1277.870000
739.000000	73.895712	3.537633	598458.932848	1278.000000
740.000000	73.995735	3.537529	598433.740874	1278.110000
741.000000	74.095715	3.537633	598458.932848	1278.240000
742.000000	74.195695	3.538051	598559.700747	1278.380000
743.000000	74.295711	3.537738	598484.124823	1278.500000
744.000000	74.395699	3.538365	598635.276670	1278.630000
745.000000	74.495651	3.537529	598433.740874	1278.740000
746.000000	74.595703	3.537738	598484.124823	1278.870000
747.000000	74.695708	3.538051	598559.700747	1278.990000
748.000000	74.795666	3.537529	598433.740874	1279.120000
749.000000	74.895679	3.537842	598509.316798	1279.240000
750.000000	74.995653	3.537947	598534.508772	1279.370000
751.000000	75.095648	3.537215	598358.164950	1279.490000
752.000000	75.195464	3.537633	598458.932848	1279.600000
753.000000	75.295488	3.537320	598383.356925	1279.730000
754.000000	75.395614	3.537633	598458.932848	1279.870000
755.000000	75.495648	3.537529	598433.740874	1279.990000
756.000000	75.595653	3.537215	598358.164950	1280.120000
757.000000	75.695559	3.537947	598534.508772	1280.240000
758.000000	75.795636	3.537529	598433.740874	1280.360000
759.000000	75.895616	3.537424	598408.548899	1280.490000
760.000000	75.995568	3.537320	598383.356925	1280.600000
761.000000	76.095619	3.537424	598408.548899	1280.740000
762.000000	76.195513	3.537529	598433.740874	1280.870000
763.000000	76.295568	3.537320	598383.356925	1281.000000
764.000000	76.395596	3.537006	598307.781001	1281.110000
765.000000	76.495597	3.537111	598332.972976	1281.240000
766.000000	76.595526	3.537111	598332.972976	1281.360000
767.000000	76.695578	3.537006	598307.781001	1281.480000
768.000000	76.795522	3.537320	598383.356925	1281.610000
769.000000	76.895540	3.537215	598358.164950	1281.740000
770.000000	76.995567	3.537529	598433.740874	1281.870000
771.000000	77.095538	3.537111	598332.972976	1281.990000
772.000000	77.195539	3.537006	598307.781001	1282.110000
773.000000	77.295540	3.537006	598307.781001	1282.230000
774.000000	77.395522	3.537006	598307.781001	1282.360000
775.000000	77.495484	3.536902	598282.589027	1282.490000
776.000000	77.595533	3.536484	598181.821129	1282.620000
777.000000	77.695515	3.537111	598332.972976	1282.740000
778.000000	77.795487	3.537215	598358.164950	1282.860000
779.000000	77.895516	3.536797	598257.397052	1282.970000
780.000000	77.995347	3.536797	598257.397052	1283.100000
781.000000	78.095461	3.537111	598332.972976	1283.230000
782.000000	78.195501	3.537111	598332.972976	1283.360000
783.000000	78.295488	3.536693	598232.205078	1283.470000
784.000000	78.395452	3.537111	598332.972976	1283.600000
785.000000	78.495459	3.536484	598181.821129	1283.720000
786.000000	78.595480	3.537006	598307.781001	1283.850000
787.000000	78.695414	3.536588	598207.013103	1283.970000
788.000000	78.795485	3.536588	598207.013103	1284.100000
789.000000	78.895460	3.536902	598282.589027	1284.230000
790.000000	78.995399	3.536379	598156.629154	1284.340000
791.000000	79.095431	3.536588	598207.013103	1284.460000
792.000000	79.195436	3.536902	598282.589027	1284.590000
793.000000	79.295393	3.536797	598257.397052	1284.720000
794.000000	79.395423	3.536588	598207.013103	1284.840000
795.000000	79.495388	3.536379	598156.629154	1284.970000
796.000000	79.595281	3.536693	598232.205078	1285.100000
797.000000	79.695315	3.536379	598156.629154	1285.220000
798.000000	79.795289	3.536693	598232.205078	1285.330000
799.000000	79.895291	3.536275	598131.437179	1285.460000
800.000000	79.995180	3.536170	598106.245205	1285.590000
801.000000	80.095498	3.536693	598232.205078	1285.710000
802.000000	80.195350	3.536693	598232.205078	1285.840000
803.000000	80.295357	3.536379	598156.629154	1285.960000
804.000000	80.395363	3.536484	598181.821129	1286.080000
805.000000	80.495340	3.536066	598081.053230	1286.200000
806.000000	80.595306	3.536484	598181.821129	1286.340000
807.000000	80.695348	3.536170	598106.245205	1286.470000
808.000000	80.795189	3.536484	598181.821129	1286.600000
809.000000	80.895125	3.536693	598232.205078	1286.720000
810.000000	80.995123	3.536170	598106.245205	1286.840000
811.000000	81.095158	3.535961	598055.861256	1286.960000
812.000000	81.195157	3.536066	598081.053230	1287.080000
813.000000	81.295140	3.536588	598207.013103	1287.210000
814.000000	81.395190	3.535857	598030.669281	1287.340000
815.000000	81.495310	3.536066	598081.053230	1287.470000
816.000000	81.595421	3.535752	598005.477307	1287.580000
817.000000	81.695362	3.536275	598131.437179	1287.700000
818.000000	81.795383	3.535752	598005.477307	1287.830000
819.000000	81.895370	3.536066	598081.053230	1287.960000
820.000000	81.995264	3.536170	598106.245205	1288.080000
821.000000	82.095280	3.536170	598106.245205	1288.210000
822.000000	82.195180	3.535857	598030.669281	1288.330000
823.000000	82.295195	3.535857	598030.669281	1288.450000
824.000000	82.395173	3.536275	598131.437179	1288.570000
825.000000	82.495194	3.536379	598156.629154	1288.690000
826.000000	82.595198	3.535857	598030.669281	1288.820000
827.000000	82.695161	3.535961	598055.861256	1288.960000
828.000000	82.795152	3.536066	598081.053230	1289.070000
829.000000	82.895151	3.536379	598156.629154	1289.190000
830.000000	82.995132	3.535857	598030.669281	1289.320000
831.000000	83.095128	3.536379	598156.629154	1289.450000
832.000000	83.195147	3.535857	598030.669281	1289.560000
833.000000	83.295120	3.535752	598005.477307	1289.690000
834.000000	83.395114	3.535125	597854.325460	1289.820000
835.000000	83.495121	3.535961	598055.861256	1289.950000
836.000000	83.595124	3.535648	597980.285332	1290.070000
837.000000	83.695160	3.535543	597955.093358	1290.180000
838.000000	83.795206	3.535543	597955.093358	1290.310000
839.000000	83.895035	3.535543	597955.093358	1290.440000
840.000000	83.995042	3.535857	598030.669281	1290.560000
841.000000	84.095067	3.536170	598106.245205	1290.690000
842.000000	84.195090	3.535543	597955.093358	1290.810000
843.000000	84.295043	3.535648	597980.285332	1290.930000
844.000000	84.395055	3.535961	598055.861256	1291.050000
845.000000	84.495055	3.535857	598030.669281	1291.180000
846.000000	84.595058	3.535857	598030.669281	1291.310000
847.000000	84.695078	3.535752	598005.477307	1291.440000
848.000000	84.795049	3.535648	597980.285332	1291.560000
849.000000	84.895071	3.535857	598030.669281	1291.680000
850.000000	84.995033	3.535961	598055.861256	1291.810000
851.000000	85.095016	3.535648	597980.285332	1291.930000
852.000000	85.194880	3.535961	598055.861256	1292.050000
853.000000	85.295026	3.535439	597929.901383	1292.180000
854.000000	85.395027	3.536170	598106.245205	1292.310000
855.000000	85.494995	3.535543	597955.093358	1292.420000
856.000000	85.594990	3.535125	597854.325460	1292.540000
857.000000	85.694982	3.535230	597879.517434	1292.660000
858.000000	85.794976	3.535125	597854.325460	1292.800000
859.000000	85.895002	3.535543	597955.093358	1292.930000
860.000000	85.994969	3.535230	597879.517434	1293.050000
861.000000	86.094980	3.535857	598030.669281	1293.170000
862.000000	86.194955	3.535752	598005.477307	1293.290000
863.000000	86.294959	3.535125	597854.325460	1293.420000
864.000000	86.394961	3.535648	597980.285332	1293.540000
865.000000	86.494924	3.535334	597904.709409	1293.660000
866.000000	86.595020	3.535543	597955.093358	1293.800000
867.000000	86.695013	3.535752	598005.477307	1293.930000
868.000000	86.794952	3.534707	597753.557561	1294.040000
869.000000	86.895004	3.535230	597879.517434	1294.150000
870.000000	86.994952	3.535543	597955.093358	1294.280000
871.000000	87.094955	3.535021	597829.133485	1294.410000
872.000000	87.194994	3.535543	597955.093358	1294.540000
873.000000	87.294949	3.535125	597854.325460	1294.660000
874.000000	87.394917	3.534916	597803.941511	1294.790000
875.000000	87.494962	3.535648	597980.285332	1294.920000
876.000000	87.594951	3.535334	597904.709409	1295.030000
877.000000	87.694923	3.535439	597929.901383	1295.140000
878.000000	87.794973	3.535648	597980.285332	1295.280000
879.000000	87.894950	3.534602	597728.365587	1295.410000
880.000000	87.994732	3.535857	598030.669281	1295.540000
881.000000	88.094929	3.535230	597879.517434	1295.660000
882.000000	88.194859	3.534707	597753.557561	1295.770000
883.000000	88.294879	3.535021	597829.133485	1295.900000
884.000000	88.394915	3.535021	597829.133485	1296.030000
885.000000	88.494912	3.535021	597829.133485	1296.160000
886.000000	88.594833	3.535021	597829.133485	1296.280000
887.000000	88.694908	3.534602	597728.365587	1296.410000
888.000000	88.794917	3.534393	597677.981638	1296.530000
889.000000	88.894845	3.535021	597829.133485	1296.640000
890.000000	88.994879	3.534707	597753.557561	1296.760000
891.000000	89.094870	3.534602	597728.365587	1296.900000
892.000000	89.194830	3.535125	597854.325460	1297.030000
893.000000	89.294850	3.534602	597728.365587	1297.160000
894.000000	89.394844	3.534916	597803.941511	1297.280000
895.000000	89.494813	3.534498	597703.173612	1297.390000
896.000000	89.594830	3.534811	597778.749536	1297.510000
897.000000	89.694827	3.534916	597803.941511	1297.640000
898.000000	89.794846	3.535021	597829.133485	1297.770000
899.000000	89.894826	3.534602	597728.365587	1297.900000
900.000000	89.994778	3.535230	597879.517434	1298.030000
901.000000	90.094784	3.534289	597652.789663	1298.150000
902.000000	90.194798	3.535021	597829.133485	1298.260000
903.000000	90.294807	3.534184	597627.597689	1298.380000
904.000000	90.394767	3.534602	597728.365587	1298.510000
905.000000	90.494795	3.534602	597728.365587	1298.640000
906.000000	90.594794	3.534498	597703.173612	1298.770000
907.000000	90.694752	3.534707	597753.557561	1298.890000
908.000000	90.794771	3.534393	597677.981638	1299.010000
909.000000	90.894738	3.534602	597728.365587	1299.130000
910.000000	90.994732	3.534498	597703.173612	1299.250000
911.000000	91.094748	3.534498	597703.173612	1299.380000
912.000000	91.194757	3.534289	597652.789663	1299.520000
913.000000	91.294724	3.534602	597728.365587	1299.630000
914.000000	91.394756	3.534080	597602.405714	1299.760000
915.000000	91.494735	3.534393	597677.981638	1299.880000
916.000000	91.594570	3.534707	597753.557561	1300.000000
917.000000	91.694729	3.534811	597778.749536	1300.120000
918.000000	91.794715	3.533871	597552.021765	1300.260000
919.000000	91.894680	3.534393	597677.981638	1300.380000
920.000000	91.994714	3.534080	597602.405714	1300.510000
921.000000	92.094691	3.534811	597778.749536	1300.630000
922.000000	92.194673	3.534498	597703.173612	1300.750000
923.000000	92.294641	3.534707	597753.557561	1300.860000
924.000000	92.394684	3.534707	597753.557561	1300.990000
925.000000	92.494644	3.534498	597703.173612	1301.120000
926.000000	92.594659	3.534184	597627.597689	1301.250000
927.000000	92.694649	3.534289	597652.789663	1301.370000
928.000000	92.794612	3.534289	597652.789663	1301.500000
929.000000	92.894626	3.533975	597577.213740	1301.610000
930.000000	92.994592	3.534602	597728.365587	1301.730000
931.000000	93.094617	3.533766	597526.829791	1301.860000
932.000000	93.194649	3.533871	597552.021765	1302.000000
933.000000	93.294535	3.534184	597627.597689	1302.110000
934.000000	93.394614	3.533975	597577.213740	1302.240000
935.000000	93.494622	3.533662	597501.637816	1302.350000
936.000000	93.594616	3.534602	597728.365587	1302.480000
937.000000	93.694578	3.533871	597552.021765	1302.610000
938.000000	93.794610	3.533557	597476.445842	1302.740000
939.000000	93.894586	3.534080	597602.405714	1302.860000
940.000000	93.994577	3.533871	597552.021765	1302.980000
941.000000	94.094582	3.533871	597552.021765	1303.110000
942.000000	94.194585	3.534498	597703.173612	1303.220000
943.000000	94.294539	3.533766	597526.829791	1303.340000
944.000000	94.394571	3.533453	597451.253867	1303.470000
945.000000	94.494570	3.533871	597552.021765	1303.610000
946.000000	94.594549	3.534184	597627.597689	1303.740000
947.000000	94.694559	3.533871	597552.021765	1303.860000
948.000000	94.794546	3.534289	597652.789663	1303.970000
949.000000	94.894522	3.533662	597501.637816	1304.090000
950.000000	94.994522	3.533557	597476.445842	1304.220000
951.000000	95.094528	3.533348	597426.061892	1304.350000
952.000000	95.194476	3.533348	597426.061892	1304.460000
953.000000	95.294508	3.533871	597552.021765	1304.590000
954.000000	95.394518	3.533871	597552.021765	1304.720000
955.000000	95.494467	3.533139	597375.677943	1304.840000
956.000000	95.594499	3.533453	597451.253867	1304.960000
957.000000	95.694490	3.533244	597400.869918	1305.090000
958.000000	95.794452	3.533766	597526.829791	1305.220000
959.000000	95.894474	3.533139	597375.677943	1305.350000
960.000000	95.994435	3.533453	597451.253867	1305.470000
961.000000	96.094437	3.533244	597400.869918	1305.590000
962.000000	96.194455	3.533871	597552.021765	1305.710000
963.000000	96.294457	3.533453	597451.253867	1305.830000
964.000000	96.394421	3.532721	597274.910045	1305.960000
965.000000	96.494449	3.533348	597426.061892	1306.090000
966.000000	96.594448	3.533244	597400.869918	1306.210000
967.000000	96.694394	3.533035	597350.485969	1306.330000
968.000000	96.794432	3.533139	597375.677943	1306.450000
969.000000	96.894391	3.532826	597300.102020	1306.570000
970.000000	96.994482	3.533139	597375.677943	1306.700000
971.000000	97.094425	3.533871	597552.021765	1306.830000
972.000000	97.194389	3.533139	597375.677943	1306.960000
973.000000	97.294375	3.533244	597400.869918	1307.080000
974.000000	97.394399	3.532512	597224.526096	1307.190000
975.000000	97.494377	3.532930	597325.293994	1307.320000
976.000000	97.594343	3.533348	597426.061892	1307.450000
977.000000	97.694367	3.532617	597249.718071	1307.580000
978.000000	97.794364	3.533035	597350.485969	1307.700000
979.000000	97.894336	3.532826	597300.102020	1307.830000
980.000000	97.994193	3.533139	597375.677943	1307.950000
981.000000	98.094347	3.533035	597350.485969	1308.070000
982.000000	98.194286	3.532408	597199.334122	1308.190000
983.000000	98.294321	3.532826	597300.102020	1308.320000
984.000000	98.394312	3.532930	597325.293994	1308.450000
985.000000	98.494283	3.532617	597249.718071	1308.560000
986.000000	98.594293	3.533139	597375.677943	1308.670000
987.000000	98.694307	3.532617	597249.718071	1308.790000
988.000000	98.794173	3.532826	597300.102020	1308.920000
989.000000	98.894412	3.532826	597300.102020	1309.050000
990.000000	98.994152	3.532512	597224.526096	1309.170000
991.000000	99.094341	3.533557	597476.445842	1309.290000
992.000000	99.194353	3.532826	597300.102020	1309.400000
993.000000	99.294371	3.532199	597148.950173	1309.510000
994.000000	99.394221	3.532930	597325.293994	1309.620000
995.000000	99.494287	3.532408	597199.334122	1309.750000
996.000000	99.594277	3.532408	597199.334122	1309.880000
997.000000	99.694172	3.532408	597199.334122	1310.000000
998.000000	99.794246	3.532617	597249.718071	1310.110000
999.000000	99.894082	3.532721	597274.910045	1310.230000
1000.000000	99.994043	3.533139	597375.677943	1310.350000
1001.000000	100.094055	3.532512	597224.526096	1310.490000
1002.000000	100.194023	3.532408	597199.334122	1310.620000
1003.000000	100.294113	3.532199	597148.950173	1310.760000
1004.000000	100.394123	3.531885	597073.374249	1310.870000
1005.000000	100.494194	3.532094	597123.758198	1310.990000
1006.000000	100.594303	3.532512	597224.526096	1311.100000
1007.000000	100.694321	3.532094	597123.758198	1311.230000
1008.000000	100.794260	3.531571	596997.798325	1311.370000
1009.000000	100.894253	3.531990	597098.566223	1311.490000
1010.000000	100.994182	3.532721	597274.910045	1311.600000
1011.000000	101.094169	3.532617	597249.718071	1311.710000
1012.000000	101.194096	3.533035	597350.485969	1311.820000
1013.000000	101.294058	3.532094	597123.758198	1311.950000
1014.000000	101.394079	3.532094	597123.758198	1312.090000
1015.000000	101.493978	3.532094	597123.758198	1312.230000
1016.000000	101.594084	3.532617	597249.718071	1312.350000
1017.000000	101.694269	3.532617	597249.718071	1312.460000
1018.000000	101.794058	3.532094	597123.758198	1312.590000
1019.000000	101.894200	3.531885	597073.374249	1312.730000
1020.000000	101.994041	3.532199	597148.950173	1312.860000
1021.000000	102.094044	3.531990	597098.566223	1312.980000
1022.000000	102.194066	3.531676	597022.990300	1313.090000
1023.000000	102.293917	3.531467	596972.606351	1313.210000
1024.000000	102.394046	3.532199	597148.950173	1313.330000
1025.000000	102.494035	3.531571	596997.798325	1313.460000
1026.000000	102.594026	3.531362	596947.414376	1313.590000
1027.000000	102.694003	3.531990	597098.566223	1313.730000
1028.000000	102.794000	3.531781	597048.182274	1313.850000
1029.000000	102.894002	3.531571	596997.798325	1313.960000
1030.000000	102.994006	3.532094	597123.758198	1314.080000
1031.000000	103.093988	3.531781	597048.182274	1314.210000
1032.000000	103.194017	3.531571	596997.798325	1314.340000
1033.000000	103.293978	3.531571	596997.798325	1314.470000
1034.000000	103.393968	3.531467	596972.606351	1314.590000
1035.000000	103.493964	3.531049	596871.838453	1314.710000
1036.000000	103.593982	3.531990	597098.566223	1314.830000
1037.000000	103.693996	3.531467	596972.606351	1314.950000
1038.000000	103.793961	3.531571	596997.798325	1315.080000
1039.000000	103.893996	3.531258	596922.222402	1315.210000
1040.000000	103.993959	3.531258	596922.222402	1315.330000
1041.000000	104.093936	3.531258	596922.222402	1315.460000
1042.000000	104.193958	3.531362	596947.414376	1315.580000
1043.000000	104.293918	3.531990	597098.566223	1315.710000
1044.000000	104.393920	3.531049	596871.838453	1315.830000
1045.000000	104.493967	3.530944	596846.646478	1315.960000
1046.000000	104.593910	3.531049	596871.838453	1316.080000
1047.000000	104.693898	3.531571	596997.798325	1316.200000
1048.000000	104.793918	3.531362	596947.414376	1316.320000
1049.000000	104.893914	3.531049	596871.838453	1316.450000
1050.000000	104.993839	3.531258	596922.222402	1316.580000
1051.000000	105.093876	3.531049	596871.838453	1316.710000
1052.000000	105.193887	3.531258	596922.222402	1316.820000
1053.000000	105.293870	3.531467	596972.606351	1316.940000
1054.000000	105.393905	3.531258	596922.222402	1317.070000
1055.000000	105.493870	3.531049	596871.838453	1317.190000
1056.000000	105.593886	3.531049	596871.838453	1317.320000
1057.000000	105.693847	3.531258	596922.222402	1317.440000
1058.000000	105.793846	3.531676	597022.990300	1317.560000
1059.000000	105.893838	3.530944	596846.646478	1317.690000
1060.000000	105.993827	3.531049	596871.838453	1317.810000
1061.000000	106.093828	3.530526	596745.878580	1317.930000
1062.000000	106.193837	3.530944	596846.646478	1318.060000
1063.000000	106.293830	3.530735	596796.262529	1318.180000
1064.000000	106.393810	3.530526	596745.878580	1318.300000
1065.000000	106.493817	3.530526	596745.878580	1318.430000
1066.000000	106.593839	3.530735	596796.262529	1318.550000
1067.000000	106.693802	3.530004	596619.918707	1318.690000
1068.000000	106.793783	3.530213	596670.302656	1318.810000
1069.000000	106.893770	3.530422	596720.686605	1318.930000
1070.000000	106.993894	3.530944	596846.646478	1319.040000
1071.000000	107.093760	3.530735	596796.262529	1319.170000
1072.000000	107.193778	3.530631	596771.070555	1319.290000
1073.000000	107.293764	3.530526	596745.878580	1319.430000
1074.000000	107.393756	3.530840	596821.454504	1319.550000
1075.000000	107.493750	3.530317	596695.494631	1319.680000
1076.000000	107.593771	3.530004	596619.918707	1319.790000
1077.000000	107.693731	3.530213	596670.302656	1319.920000
1078.000000	107.793750	3.530526	596745.878580	1320.050000
1079.000000	107.893733	3.530526	596745.878580	1320.170000
1080.000000	107.993644	3.530944	596846.646478	1320.300000
1081.000000	108.093733	3.530004	596619.918707	1320.420000
1082.000000	108.193704	3.530317	596695.494631	1320.530000
1083.000000	108.293720	3.530526	596745.878580	1320.650000
1084.000000	108.393708	3.530944	596846.646478	1320.780000
1085.000000	108.493676	3.530317	596695.494631	1320.910000
1086.000000	108.593692	3.530108	596645.110682	1321.040000
1087.000000	108.693678	3.529899	596594.726733	1321.150000
1088.000000	108.793704	3.530004	596619.918707	1321.270000
1089.000000	108.893669	3.529899	596594.726733	1321.390000
1090.000000	108.993658	3.529899	596594.726733	1321.530000
1091.000000	109.093671	3.529899	596594.726733	1321.660000
1092.000000	109.193660	3.529899	596594.726733	1321.790000
1093.000000	109.293646	3.529377	596468.766860	1321.900000
1094.000000	109.393648	3.529899	596594.726733	1322.020000
1095.000000	109.493648	3.530317	596695.494631	1322.130000
1096.000000	109.593628	3.530108	596645.110682	1322.260000
1097.000000	109.693617	3.530004	596619.918707	1322.390000
1098.000000	109.793672	3.530422	596720.686605	1322.530000
1099.000000	109.893618	3.530108	596645.110682	1322.640000
1100.000000	109.993598	3.530108	596645.110682	1322.750000
1101.000000	110.093594	3.530631	596771.070555	1322.870000
1102.000000	110.193526	3.529899	596594.726733	1323.010000
1103.000000	110.293613	3.530317	596695.494631	1323.140000
1104.000000	110.393588	3.530213	596670.302656	1323.280000
1105.000000	110.493579	3.529690	596544.342784	1323.390000
1106.000000	110.593561	3.529795	596569.534758	1323.510000
1107.000000	110.693627	3.529481	596493.958835	1323.620000
1108.000000	110.793560	3.529899	596594.726733	1323.750000
1109.000000	110.893635	3.529795	596569.534758	1323.880000
1110.000000	110.993524	3.529795	596569.534758	1324.010000
1111.000000	111.093535	3.529690	596544.342784	1324.130000
1112.000000	111.193555	3.529586	596519.150809	1324.250000
1113.000000	111.293512	3.529377	596468.766860	1324.360000
1114.000000	111.393448	3.529168	596418.382911	1324.480000
1115.000000	111.493528	3.529481	596493.958835	1324.620000
1116.000000	111.593409	3.529795	596569.534758	1324.750000
1117.000000	111.693495	3.529586	596519.150809	1324.880000
1118.000000	111.793492	3.529272	596443.574886	1325.000000
1119.000000	111.893500	3.529063	596393.190936	1325.110000
1120.000000	111.993508	3.529272	596443.574886	1325.230000
1121.000000	112.093629	3.530108	596645.110682	1325.370000
1122.000000	112.193503	3.529063	596393.190936	1325.490000
1123.000000	112.293477	3.529481	596493.958835	1325.610000
1124.000000	112.393457	3.529377	596468.766860	1325.730000
1125.000000	112.493455	3.529586	596519.150809	1325.850000
1126.000000	112.593460	3.529690	596544.342784	1325.980000
1127.000000	112.693475	3.529586	596519.150809	1326.100000
1128.000000	112.793446	3.529377	596468.766860	1326.240000
1129.000000	112.893430	3.529586	596519.150809	1326.360000
1130.000000	112.993433	3.528645	596292.423038	1326.480000
1131.000000	113.093415	3.529168	596418.382911	1326.590000
1132.000000	113.193433	3.529272	596443.574886	1326.710000
1133.000000	113.293416	3.529586	596519.150809	1326.850000
1134.000000	113.393406	3.529272	596443.574886	1326.980000
1135.000000	113.493403	3.529481	596493.958835	1327.100000
1136.000000	113.593397	3.529481	596493.958835	1327.220000
1137.000000	113.693427	3.529168	596418.382911	1327.340000
1138.000000	113.793377	3.528959	596367.998962	1327.460000
1139.000000	113.893403	3.529063	596393.190936	1327.590000
1140.000000	113.993341	3.529063	596393.190936	1327.710000
1141.000000	114.093256	3.529063	596393.190936	1327.840000
1142.000000	114.193357	3.529272	596443.574886	1327.960000
1143.000000	114.293360	3.528854	596342.806987	1328.080000
1144.000000	114.393348	3.529063	596393.190936	1328.210000
1145.000000	114.493346	3.529063	596393.190936	1328.330000
1146.000000	114.593362	3.529168	596418.382911	1328.460000
1147.000000	114.693336	3.529481	596493.958835	1328.580000
1148.000000	114.793410	3.528854	596342.806987	1328.700000
1149.000000	114.893393	3.529168	596418.382911	1328.830000
1150.000000	114.993342	3.528645	596292.423038	1328.950000
1151.000000	115.093375	3.528959	596367.998962	1329.080000
1152.000000	115.193382	3.528959	596367.998962	1329.210000
1153.000000	115.293334	3.529063	596393.190936	1329.330000
1154.000000	115.393365	3.528331	596216.847115	1329.440000
1155.000000	115.493352	3.528750	596317.615013	1329.570000
1156.000000	115.593344	3.529586	596519.150809	1329.700000
1157.000000	115.693373	3.529272	596443.574886	1329.830000
1158.000000	115.793358	3.528750	596317.615013	1329.950000
1159.000000	115.893329	3.528018	596141.271191	1330.060000
1160.000000	115.993197	3.528541	596267.231064	1330.180000
1161.000000	116.093344	3.528645	596292.423038	1330.300000
1162.000000	116.193303	3.528541	596267.231064	1330.430000
1163.000000	116.293333	3.528854	596342.806987	1330.560000
1164.000000	116.393304	3.528645	596292.423038	1330.690000
1165.000000	116.493289	3.528750	596317.615013	1330.810000
1166.000000	116.593319	3.528750	596317.615013	1330.930000
1167.000000	116.693303	3.528436	596242.039089	1331.050000
1168.000000	116.793267	3.528854	596342.806987	1331.180000
1169.000000	116.893292	3.528750	596317.615013	1331.310000
1170.000000	116.993190	3.528854	596342.806987	1331.440000
1171.000000	117.093258	3.528436	596242.039089	1331.550000
1172.000000	117.193256	3.528331	596216.847115	1331.670000
1173.000000	117.293228	3.528750	596317.615013	1331.790000
1174.000000	117.393214	3.528854	596342.806987	1331.910000
1175.000000	117.493225	3.528018	596141.271191	1332.050000
1176.000000	117.593228	3.528436	596242.039089	1332.180000
1177.000000	117.693123	3.528750	596317.615013	1332.300000
1178.000000	117.793335	3.528227	596191.655140	1332.400000
1179.000000	117.893145	3.528645	596292.423038	1332.530000
1180.000000	117.993106	3.527704	596065.695268	1332.660000
1181.000000	118.093300	3.528750	596317.615013	1332.800000
1182.000000	118.193259	3.528227	596191.655140	1332.920000
1183.000000	118.293168	3.527809	596090.887242	1333.030000
1184.000000	118.393200	3.528750	596317.615013	1333.140000
1185.000000	118.493201	3.528122	596166.463166	1333.270000
1186.000000	118.593125	3.528750	596317.615013	1333.390000
1187.000000	118.693168	3.528331	596216.847115	1333.530000
1188.000000	118.793159	3.527809	596090.887242	1333.660000
1189.000000	118.893111	3.529063	596393.190936	1333.780000
1190.000000	118.993140	3.528122	596166.463166	1333.880000
1191.000000	119.093006	3.528541	596267.231064	1334.000000
1192.000000	119.193003	3.528436	596242.039089	1334.150000
1193.000000	119.292970	3.527809	596090.887242	1334.280000
1194.000000	119.393023	3.527809	596090.887242	1334.400000
1195.000000	119.493091	3.528018	596141.271191	1334.510000
1196.000000	119.593201	3.528436	596242.039089	1334.630000
1197.000000	119.693190	3.528018	596141.271191	1334.760000
1198.000000	119.793215	3.528018	596141.271191	1334.880000
1199.000000	119.893177	3.528331	596216.847115	1335.020000
1200.000000	119.993072	3.527809	596090.887242	1335.150000
1201.000000	120.093086	3.528436	596242.039089	1335.270000
1202.000000	120.193045	3.528331	596216.847115	1335.380000
1203.000000	120.293053	3.527913	596116.079217	1335.510000
1204.000000	120.393042	3.527809	596090.887242	1335.640000
1205.000000	120.493063	3.527600	596040.503293	1335.770000
1206.000000	120.593084	3.528122	596166.463166	1335.880000
1207.000000	120.692948	3.528227	596191.655140	1336.000000
1208.000000	120.793058	3.528122	596166.463166	1336.130000
1209.000000	120.893076	3.528227	596191.655140	1336.260000
1210.000000	120.993020	3.528018	596141.271191	1336.380000
1211.000000	121.093049	3.528018	596141.271191	1336.510000
1212.000000	121.193041	3.527913	596116.079217	1336.630000
1213.000000	121.292997	3.528018	596141.271191	1336.760000
1214.000000	121.393024	3.527809	596090.887242	1336.870000
1215.000000	121.493023	3.527809	596090.887242	1336.990000
1216.000000	121.592988	3.527913	596116.079217	1337.120000
1217.000000	121.693006	3.527809	596090.887242	1337.250000
1218.000000	121.793008	3.527704	596065.695268	1337.370000
1219.000000	121.892970	3.527809	596090.887242	1337.490000
1220.000000	121.992987	3.528331	596216.847115	1337.610000
1221.000000	122.092979	3.527600	596040.503293	1337.730000
1222.000000	122.192949	3.527286	595964.927369	1337.860000
1223.000000	122.292962	3.527913	596116.079217	1337.980000
1224.000000	122.392967	3.527809	596090.887242	1338.100000
1225.000000	122.492927	3.527286	595964.927369	1338.230000
1226.000000	122.592955	3.528227	596191.655140	1338.370000
1227.000000	122.692954	3.527704	596065.695268	1338.490000
1228.000000	122.792926	3.527391	595990.119344	1338.600000
1229.000000	122.892951	3.527704	596065.695268	1338.720000
1230.000000	122.992846	3.527286	595964.927369	1338.850000
1231.000000	123.092897	3.527495	596015.311318	1338.980000
1232.000000	123.192935	3.527182	595939.735395	1339.100000
1233.000000	123.292917	3.527391	595990.119344	1339.220000
1234.000000	123.392880	3.527809	596090.887242	1339.350000
1235.000000	123.492925	3.527495	596015.311318	1339.470000
1236.000000	123.592909	3.527495	596015.311318	1339.590000
1237.000000	123.692865	3.527495	596015.311318	1339.720000
1238.000000	123.792877	3.527286	595964.927369	1339.850000
1239.000000	123.892895	3.527704	596065.695268	1339.970000
1240.000000	123.992835	3.527704	596065.695268	1340.090000
1241.000000	124.092874	3.527495	596015.311318	1340.200000
1242.000000	124.192871	3.527495	596015.311318	1340.340000
1243.000000	124.292802	3.527182	595939.735395	1340.470000
1244.000000	124.392869	3.527495	596015.311318	1340.590000
1245.000000	124.492815	3.527391	595990.119344	1340.710000
1246.000000	124.592723	3.527077	595914.543420	1340.840000
1247.000000	124.692787	3.527391	595990.119344	1340.960000
1248.000000	124.792834	3.527077	595914.543420	1341.070000
1249.000000	124.892808	3.527391	595990.119344	1341.190000
1250.000000	124.992790	3.527391	595990.119344	1341.320000
1251.000000	125.092826	3.527077	595914.543420	1341.460000
1252.000000	125.192795	3.527495	596015.311318	1341.580000
1253.000000	125.292818	3.527077	595914.543420	1341.690000
1254.000000	125.392799	3.527077	595914.543420	1341.810000
1255.000000	125.492765	3.527809	596090.887242	1341.950000
1256.000000	125.592790	3.527391	595990.119344	1342.070000
1257.000000	125.692803	3.527077	595914.543420	1342.190000
1258.000000	125.792782	3.527077	595914.543420	1342.320000
1259.000000	125.892789	3.526764	595838.967497	1342.440000
1260.000000	125.992724	3.527495	596015.311318	1342.560000
1261.000000	126.092724	3.527391	595990.119344	1342.680000
1262.000000	126.192764	3.526973	595889.351446	1342.810000
1263.000000	126.292759	3.527286	595964.927369	1342.950000
1264.000000	126.392730	3.527286	595964.927369	1343.070000
1265.000000	126.492752	3.527182	595939.735395	1343.180000
1266.000000	126.592734	3.526973	595889.351446	1343.300000
1267.000000	126.692688	3.526764	595838.967497	1343.420000
1268.000000	126.792714	3.526973	595889.351446	1343.560000
1269.000000	126.892705	3.527077	595914.543420	1343.680000
1270.000000	126.992733	3.527286	595964.927369	1343.800000
1271.000000	127.092703	3.526868	595864.159471	1343.930000
1272.000000	127.192697	3.526868	595864.159471	1344.040000
1273.000000	127.292662	3.527182	595939.735395	1344.160000
1274.000000	127.392697	3.526868	595864.159471	1344.290000
1275.000000	127.492683	3.526973	595889.351446	1344.420000
1276.000000	127.592642	3.526764	595838.967497	1344.540000
1277.000000	127.692616	3.527182	595939.735395	1344.660000
1278.000000	127.792668	3.526973	595889.351446	1344.790000
1279.000000	127.892616	3.527077	595914.543420	1344.910000
1280.000000	127.992503	3.526659	595813.775522	1345.030000
1281.000000	128.092644	3.526137	595687.815649	1345.150000
1282.000000	128.192622	3.526868	595864.159471	1345.280000
1283.000000	128.292617	3.526973	595889.351446	1345.400000
1284.000000	128.392635	3.526659	595813.775522	1345.530000
1285.000000	128.492591	3.526555	595788.583548	1345.650000
1286.000000	128.592621	3.526868	595864.159471	1345.770000
1287.000000	128.692598	3.526764	595838.967497	1345.890000
1288.000000	128.792571	3.526555	595788.583548	1346.030000
1289.000000	128.892587	3.526659	595813.775522	1346.150000
1290.000000	128.992555	3.526659	595813.775522	1346.270000
1291.000000	129.092568	3.527077	595914.543420	1346.390000
1292.000000	129.192555	3.526555	595788.583548	1346.520000
1293.000000	129.292469	3.526764	595838.967497	1346.640000
1294.000000	129.392518	3.526555	595788.583548	1346.770000
1295.000000	129.492567	3.527286	595964.927369	1346.900000
1296.000000	129.592565	3.526555	595788.583548	1347.010000
1297.000000	129.692515	3.526450	595763.391573	1347.120000
1298.000000	129.792554	3.526450	595763.391573	1347.240000
1299.000000	129.892571	3.526137	595687.815649	1347.370000
1300.000000	129.992526	3.526868	595864.159471	1347.500000
1301.000000	130.092544	3.526032	595662.623675	1347.620000
1302.000000	130.192327	3.526555	595788.583548	1347.750000
1303.000000	130.292462	3.526346	595738.199599	1347.870000
1304.000000	130.392526	3.525928	595637.431700	1347.990000
1305.000000	130.492524	3.525510	595536.663802	1348.100000
1306.000000	130.592482	3.526137	595687.815649	1348.240000
1307.000000	130.692507	3.526241	595713.007624	1348.370000
1308.000000	130.792450	3.525614	595561.855777	1348.500000
1309.000000	130.892460	3.526032	595662.623675	1348.610000
1310.000000	130.992472	3.526450	595763.391573	1348.730000
1311.000000	131.092465	3.525510	595536.663802	1348.850000
1312.000000	131.192437	3.525823	595612.239726	1348.980000
1313.000000	131.292457	3.525823	595612.239726	1349.100000
1314.000000	131.392467	3.526346	595738.199599	1349.220000
1315.000000	131.492420	3.526450	595763.391573	1349.350000
1316.000000	131.592446	3.526346	595738.199599	1349.460000
1317.000000	131.692434	3.526032	595662.623675	1349.580000
1318.000000	131.792409	3.526137	595687.815649	1349.710000
1319.000000	131.892429	3.525719	595587.047751	1349.840000
1320.000000	131.992380	3.526137	595687.815649	1349.970000
1321.000000	132.092203	3.525823	595612.239726	1350.090000
1322.000000	132.192407	3.526032	595662.623675	1350.210000
1323.000000	132.292414	3.526241	595713.007624	1350.330000
1324.000000	132.392366	3.525823	595612.239726	1350.450000
1325.000000	132.492346	3.525928	595637.431700	1350.580000
1326.000000	132.592376	3.525614	595561.855777	1350.700000
1327.000000	132.692340	3.525719	595587.047751	1350.840000
1328.000000	132.792374	3.525928	595637.431700	1350.960000
1329.000000	132.892383	3.525614	595561.855777	1351.060000
1330.000000	132.992384	3.525614	595561.855777	1351.190000
1331.000000	133.092358	3.525719	595587.047751	1351.320000
1332.000000	133.192361	3.525823	595612.239726	1351.450000
1333.000000	133.292325	3.525614	595561.855777	1351.570000
1334.000000	133.392345	3.525405	595511.471828	1351.690000
1335.000000	133.492336	3.525823	595612.239726	1351.810000
1336.000000	133.592153	3.525928	595637.431700	1351.930000
1337.000000	133.692328	3.525405	595511.471828	1352.050000
1338.000000	133.792298	3.526032	595662.623675	1352.170000
1339.000000	133.892276	3.526032	595662.623675	1352.310000
1340.000000	133.992246	3.525196	595461.087879	1352.440000
1341.000000	134.092254	3.525405	595511.471828	1352.550000
1342.000000	134.192265	3.525300	595486.279853	1352.670000
1343.000000	134.292253	3.525300	595486.279853	1352.790000
1344.000000	134.392283	3.525091	595435.895904	1352.920000
1345.000000	134.492249	3.525614	595561.855777	1353.050000
1346.000000	134.592272	3.525719	595587.047751	1353.170000
1347.000000	134.692173	3.525510	595536.663802	1353.310000
1348.000000	134.792254	3.525091	595435.895904	1353.440000
1349.000000	134.892264	3.525300	595486.279853	1353.550000
1350.000000	134.992233	3.525510	595536.663802	1353.680000
1351.000000	135.092220	3.524987	595410.703930	1353.810000
1352.000000	135.192228	3.524987	595410.703930	1353.930000
1353.000000	135.292231	3.524778	595360.319980	1354.060000
1354.000000	135.392189	3.525196	595461.087879	1354.180000
1355.000000	135.492225	3.525300	595486.279853	1354.290000
1356.000000	135.592228	3.524882	595385.511955	1354.410000
1357.000000	135.692161	3.524987	595410.703930	1354.540000
1358.000000	135.792283	3.525196	595461.087879	1354.660000
1359.000000	135.892202	3.525091	595435.895904	1354.790000
1360.000000	135.992170	3.524987	595410.703930	1354.910000
1361.000000	136.092149	3.525091	595435.895904	1355.030000
1362.000000	136.192168	3.524464	595284.744057	1355.160000
1363.000000	136.292136	3.524569	595309.936031	1355.280000
1364.000000	136.392152	3.524882	595385.511955	1355.400000
1365.000000	136.492163	3.524673	595335.128006	1355.530000
1366.000000	136.592232	3.524464	595284.744057	1355.660000
1367.000000	136.692081	3.524673	595335.128006	1355.770000
1368.000000	136.791961	3.525091	595435.895904	1355.890000
1369.000000	136.892074	3.524464	595284.744057	1356.020000
1370.000000	136.992103	3.524464	595284.744057	1356.140000
1371.000000	137.092060	3.524255	595234.360108	1356.270000
1372.000000	137.192138	3.524360	595259.552082	1356.400000
1373.000000	137.292204	3.524673	595335.128006	1356.510000
1374.000000	137.392113	3.524569	595309.936031	1356.630000
1375.000000	137.492097	3.523733	595108.400235	1356.750000
1376.000000	137.592107	3.524360	595259.552082	1356.870000
1377.000000	137.692063	3.524360	595259.552082	1357.000000
1378.000000	137.792055	3.524360	595259.552082	1357.120000
1379.000000	137.891988	3.524360	595259.552082	1357.250000
1380.000000	137.991955	3.524360	595259.552082	1357.380000
1381.000000	138.091939	3.524778	595360.319980	1357.480000
1382.000000	138.191891	3.523942	595158.784184	1357.610000
1383.000000	138.291889	3.523733	595108.400235	1357.740000
1384.000000	138.391901	3.524255	595234.360108	1357.870000
1385.000000	138.492062	3.524360	595259.552082	1357.990000
1386.000000	138.592088	3.524255	595234.360108	1358.110000
1387.000000	138.692127	3.524673	595335.128006	1358.230000
1388.000000	138.792099	3.523419	595032.824312	1358.350000
1389.000000	138.892094	3.524151	595209.168133	1358.470000
1390.000000	138.991994	3.523942	595158.784184	1358.590000
1391.000000	139.092024	3.524255	595234.360108	1358.720000
1392.000000	139.192015	3.523733	595108.400235	1358.850000
1393.000000	139.292002	3.523628	595083.208261	1358.960000
1394.000000	139.391945	3.524360	595259.552082	1359.080000
1395.000000	139.491989	3.523942	595158.784184	1359.210000
1396.000000	139.591971	3.523837	595133.592210	1359.330000
1397.000000	139.691998	3.523837	595133.592210	1359.460000
1398.000000	139.791979	3.523628	595083.208261	1359.580000
1399.000000	139.891947	3.523628	595083.208261	1359.700000
1400.000000	139.991982	3.523524	595058.016286	1359.830000
1401.000000	140.091954	3.524360	595259.552082	1359.950000
1402.000000	140.191774	3.523524	595058.016286	1360.070000
1403.000000	140.291937	3.523628	595083.208261	1360.200000
1404.000000	140.391947	3.523942	595158.784184	1360.330000
1405.000000	140.491909	3.523628	595083.208261	1360.440000
1406.000000	140.591924	3.523942	595158.784184	1360.560000
1407.000000	140.691928	3.523837	595133.592210	1360.690000
1408.000000	140.791865	3.523524	595058.016286	1360.810000
1409.000000	140.891918	3.523524	595058.016286	1360.930000
1410.000000	140.991866	3.522897	594906.864439	1361.060000
1411.000000	141.091878	3.523001	594932.056413	1361.180000
1412.000000	141.191889	3.523733	595108.400235	1361.310000
1413.000000	141.291880	3.523837	595133.592210	1361.430000
1414.000000	141.391818	3.523315	595007.632337	1361.540000
1415.000000	141.491831	3.523419	595032.824312	1361.670000
1416.000000	141.591848	3.523628	595083.208261	1361.800000
1417.000000	141.691845	3.523733	595108.400235	1361.920000
1418.000000	141.791867	3.523210	594982.440362	1362.040000
1419.000000	141.891861	3.523210	594982.440362	1362.160000
1420.000000	141.991836	3.523628	595083.208261	1362.280000
1421.000000	142.091850	3.523001	594932.056413	1362.400000
1422.000000	142.191812	3.523315	595007.632337	1362.530000
1423.000000	142.291795	3.523419	595032.824312	1362.650000
1424.000000	142.391833	3.523001	594932.056413	1362.780000
1425.000000	142.491831	3.522688	594856.480490	1362.890000
1426.000000	142.591649	3.522792	594881.672464	1363.000000
1427.000000	142.691825	3.523210	594982.440362	1363.140000
1428.000000	142.791809	3.523210	594982.440362	1363.270000
1429.000000	142.891787	3.523210	594982.440362	1363.390000
1430.000000	142.991774	3.523733	595108.400235	1363.510000
1431.000000	143.091791	3.523315	595007.632337	1363.640000
1432.000000	143.191746	3.523106	594957.248388	1363.750000
1433.000000	143.291771	3.522792	594881.672464	1363.870000
1434.000000	143.391772	3.523106	594957.248388	1363.990000
1435.000000	143.491732	3.523001	594932.056413	1364.130000
1436.000000	143.591759	3.523106	594957.248388	1364.250000
1437.000000	143.691784	3.523210	594982.440362	1364.380000
1438.000000	143.791731	3.523001	594932.056413	1364.490000
1439.000000	143.891767	3.522897	594906.864439	1364.610000
1440.000000	143.991691	3.523419	595032.824312	1364.730000
1441.000000	144.091678	3.522688	594856.480490	1364.860000
1442.000000	144.191700	3.523001	594932.056413	1364.990000
1443.000000	144.291720	3.522479	594806.096541	1365.100000
1444.000000	144.391702	3.523001	594932.056413	1365.230000
1445.000000	144.491720	3.522897	594906.864439	1365.340000
1446.000000	144.591715	3.523106	594957.248388	1365.470000
1447.000000	144.691679	3.522897	594906.864439	1365.590000
1448.000000	144.791705	3.522897	594906.864439	1365.720000
1449.000000	144.891688	3.523001	594932.056413	1365.840000
1450.000000	144.991654	3.523001	594932.056413	1365.960000
1451.000000	145.091664	3.523001	594932.056413	1366.080000
1452.000000	145.191684	3.523106	594957.248388	1366.200000
1453.000000	145.291646	3.522897	594906.864439	1366.330000
1454.000000	145.391666	3.522688	594856.480490	1366.450000
1455.000000	145.491654	3.523106	594957.248388	1366.590000
1456.000000	145.591640	3.523524	595058.016286	1366.710000
1457.000000	145.691654	3.522583	594831.288515	1366.830000
1458.000000	145.791633	3.522792	594881.672464	1366.950000
1459.000000	145.891607	3.522792	594881.672464	1367.070000
1460.000000	145.991636	3.523106	594957.248388	1367.190000
1461.000000	146.091611	3.522688	594856.480490	1367.310000
1462.000000	146.191593	3.522688	594856.480490	1367.440000
1463.000000	146.291600	3.522688	594856.480490	1367.560000
1464.000000	146.391615	3.522688	594856.480490	1367.680000
1465.000000	146.491565	3.522688	594856.480490	1367.800000
1466.000000	146.591596	3.522374	594780.904566	1367.930000
1467.000000	146.691524	3.522897	594906.864439	1368.050000
1468.000000	146.791514	3.522583	594831.288515	1368.180000
1469.000000	146.891568	3.522688	594856.480490	1368.300000
1470.000000	146.991572	3.522792	594881.672464	1368.420000
1471.000000	147.091534	3.523001	594932.056413	1368.540000
1472.000000	147.191553	3.523001	594932.056413	1368.670000
1473.000000	147.291507	3.522688	594856.480490	1368.790000
1474.000000	147.391487	3.522792	594881.672464	1368.920000
1475.000000	147.491528	3.522688	594856.480490	1369.040000
1476.000000	147.591502	3.522583	594831.288515	1369.170000
1477.000000	147.691493	3.522897	594906.864439	1369.280000
1478.000000	147.791531	3.522479	594806.096541	1369.400000
1479.000000	147.891531	3.522688	594856.480490	1369.530000
1480.000000	147.991320	3.522165	594730.520617	1369.650000
1481.000000	148.091521	3.522583	594831.288515	1369.780000
1482.000000	148.191496	3.522270	594755.712592	1369.900000
1483.000000	148.291459	3.522165	594730.520617	1370.020000
1484.000000	148.391491	3.522270	594755.712592	1370.140000
1485.000000	148.491513	3.522270	594755.712592	1370.250000
1486.000000	148.591428	3.522479	594806.096541	1370.380000
1487.000000	148.691469	3.522374	594780.904566	1370.510000
1488.000000	148.791479	3.522479	594806.096541	1370.640000
1489.000000	148.891429	3.522165	594730.520617	1370.750000
1490.000000	148.991476	3.522165	594730.520617	1370.870000
1491.000000	149.091451	3.522060	594705.328643	1370.990000
1492.000000	149.191407	3.522060	594705.328643	1371.120000
1493.000000	149.291437	3.521956	594680.136668	1371.240000
1494.000000	149.391317	3.522688	594856.480490	1371.370000
1495.000000	149.491397	3.522583	594831.288515	1371.490000
1496.000000	149.591423	3.522479	594806.096541	1371.610000
1497.000000	149.691371	3.521956	594680.136668	1371.730000
1498.000000	149.791389	3.522479	594806.096541	1371.850000
1499.000000	149.891395	3.522165	594730.520617	1371.970000
1500.000000	149.991359	3.522792	594881.672464	1372.100000
1501.000000	150.091378	3.522374	594780.904566	1372.230000
1502.000000	150.191191	3.522270	594755.712592	1372.350000
1503.000000	150.291379	3.521851	594654.944693	1372.460000
1504.000000	150.391371	3.521956	594680.136668	1372.580000
1505.000000	150.491367	3.522270	594755.712592	1372.710000
1506.000000	150.591358	3.522060	594705.328643	1372.830000
1507.000000	150.691360	3.521329	594528.984821	1372.960000
1508.000000	150.791343	3.522374	594780.904566	1373.080000
1509.000000	150.891340	3.522270	594755.712592	1373.200000
1510.000000	150.991313	3.521538	594579.368770	1373.310000
1511.000000	151.091333	3.522165	594730.520617	1373.430000
1512.000000	151.191167	3.521851	594654.944693	1373.560000
1513.000000	151.291288	3.521642	594604.560744	1373.690000
1514.000000	151.391318	3.521956	594680.136668	1373.810000
1515.000000	151.491318	3.521747	594629.752719	1373.930000
1516.000000	151.591242	3.521851	594654.944693	1374.050000
1517.000000	151.691291	3.521956	594680.136668	1374.170000
1518.000000	151.791308	3.521851	594654.944693	1374.300000
1519.000000	151.891261	3.521956	594680.136668	1374.420000
1520.000000	151.991275	3.521433	594554.176795	1374.540000
1521.000000	152.091199	3.521538	594579.368770	1374.670000
1522.000000	152.191216	3.521851	594654.944693	1374.800000
1523.000000	152.291254	3.521433	594554.176795	1374.910000
1524.000000	152.391256	3.522374	594780.904566	1375.030000
1525.000000	152.491216	3.521642	594604.560744	1375.160000
1526.000000	152.591238	3.521538	594579.368770	1375.280000
1527.000000	152.691236	3.522270	594755.712592	1375.410000
1528.000000	152.791225	3.521747	594629.752719	1375.530000
1529.000000	152.891199	3.521433	594554.176795	1375.650000
1530.000000	152.991110	3.521956	594680.136668	1375.770000
1531.000000	153.091217	3.522060	594705.328643	1375.890000
1532.000000	153.191180	3.521538	594579.368770	1376.010000
1533.000000	153.291211	3.521747	594629.752719	1376.130000
1534.000000	153.391120	3.521642	594604.560744	1376.260000
1535.000000	153.491121	3.521329	594528.984821	1376.370000
1536.000000	153.591210	3.521329	594528.984821	1376.490000
1537.000000	153.691105	3.521538	594579.368770	1376.610000
1538.000000	153.791133	3.521642	594604.560744	1376.730000
1539.000000	153.891129	3.521642	594604.560744	1376.860000
1540.000000	153.991097	3.521642	594604.560744	1376.990000
1541.000000	154.091086	3.521538	594579.368770	1377.110000
1542.000000	154.191076	3.521015	594453.408897	1377.230000
1543.000000	154.291055	3.521329	594528.984821	1377.340000
1544.000000	154.391127	3.521747	594629.752719	1377.470000
1545.000000	154.491060	3.521433	594554.176795	1377.610000
1546.000000	154.591073	3.521120	594478.600872	1377.730000
1547.000000	154.691074	3.521747	594629.752719	1377.850000
1548.000000	154.791045	3.521433	594554.176795	1377.970000
1549.000000	154.891065	3.521642	594604.560744	1378.090000
1550.000000	154.991136	3.520911	594428.216923	1378.210000
1551.000000	155.091024	3.521015	594453.408897	1378.330000
1552.000000	155.191012	3.521120	594478.600872	1378.460000
1553.000000	155.291007	3.521120	594478.600872	1378.590000
1554.000000	155.391006	3.521120	594478.600872	1378.710000
1555.000000	155.491031	3.521642	594604.560744	1378.820000
1556.000000	155.591008	3.521015	594453.408897	1378.940000
1557.000000	155.690987	3.521433	594554.176795	1379.070000
1558.000000	155.790949	3.521224	594503.792846	1379.200000
1559.000000	155.890887	3.521433	594554.176795	1379.330000
1560.000000	155.991031	3.521120	594478.600872	1379.440000
1561.000000	156.091189	3.521224	594503.792846	1379.560000
1562.000000	156.191051	3.521329	594528.984821	1379.690000
1563.000000	156.290948	3.521433	594554.176795	1379.810000
1564.000000	156.390969	3.520597	594352.640999	1379.940000
1565.000000	156.491014	3.521015	594453.408897	1380.070000
1566.000000	156.590945	3.520806	594403.024948	1380.200000
1567.000000	156.690948	3.520911	594428.216923	1380.310000
1568.000000	156.790945	3.520911	594428.216923	1380.420000
1569.000000	156.890857	3.520597	594352.640999	1380.550000
1570.000000	156.991007	3.520911	594428.216923	1380.670000
1571.000000	157.090798	3.520597	594352.640999	1380.790000
1572.000000	157.190818	3.520702	594377.832974	1380.920000
1573.000000	157.290804	3.520911	594428.216923	1381.040000
1574.000000	157.390825	3.520597	594352.640999	1381.160000
1575.000000	157.490896	3.521015	594453.408897	1381.270000
1576.000000	157.590959	3.520597	594352.640999	1381.390000
1577.000000	157.691025	3.520911	594428.216923	1381.520000
1578.000000	157.790993	3.520388	594302.257050	1381.640000
1579.000000	157.890984	3.520493	594327.449025	1381.760000
1580.000000	157.990736	3.520493	594327.449025	1381.880000
1581.000000	158.090928	3.520284	594277.065075	1382.000000
1582.000000	158.190852	3.520388	594302.257050	1382.120000
1583.000000	158.290848	3.521015	594453.408897	1382.250000
1584.000000	158.390850	3.520388	594302.257050	1382.370000
1585.000000	158.490830	3.520388	594302.257050	1382.490000
1586.000000	158.590827	3.520702	594377.832974	1382.610000
1587.000000	158.690830	3.520179	594251.873101	1382.740000
1588.000000	158.790846	3.520597	594352.640999	1382.860000
1589.000000	158.890843	3.519552	594100.721254	1382.990000
1590.000000	158.990770	3.520388	594302.257050	1383.120000
1591.000000	159.090828	3.519866	594176.297177	1383.240000
1592.000000	159.190830	3.520911	594428.216923	1383.360000
1593.000000	159.290673	3.519970	594201.489152	1383.480000
1594.000000	159.390782	3.520179	594251.873101	1383.590000
1595.000000	159.490805	3.520493	594327.449025	1383.710000
1596.000000	159.590745	3.520388	594302.257050	1383.840000
1597.000000	159.690757	3.519552	594100.721254	1383.970000
1598.000000	159.790782	3.520075	594226.681126	1384.100000
1599.000000	159.890753	3.519866	594176.297177	1384.210000
1600.000000	159.990781	3.519866	594176.297177	1384.330000
1601.000000	160.090757	3.520075	594226.681126	1384.450000
1602.000000	160.190640	3.520075	594226.681126	1384.570000
1603.000000	160.290873	3.520075	594226.681126	1384.700000
1604.000000	160.390730	3.519552	594100.721254	1384.820000
1605.000000	160.490743	3.520284	594277.065075	1384.940000
1606.000000	160.590706	3.519970	594201.489152	1385.060000
1607.000000	160.690729	3.519552	594100.721254	1385.180000
1608.000000	160.790703	3.519552	594100.721254	1385.300000
1609.000000	160.890707	3.519552	594100.721254	1385.440000
1610.000000	160.990718	3.519866	594176.297177	1385.560000
1611.000000	161.090696	3.519866	594176.297177	1385.670000
1612.000000	161.190547	3.519448	594075.529279	1385.790000
1613.000000	161.290688	3.519343	594050.337305	1385.910000
1614.000000	161.390670	3.519552	594100.721254	1386.030000
1615.000000	161.490662	3.519657	594125.913228	1386.150000
1616.000000	161.590683	3.520075	594226.681126	1386.280000
1617.000000	161.690673	3.519970	594201.489152	1386.410000
1618.000000	161.790669	3.519552	594100.721254	1386.530000
1619.000000	161.890637	3.519552	594100.721254	1386.640000
1620.000000	161.990599	3.519448	594075.529279	1386.760000
1621.000000	162.090652	3.519657	594125.913228	1386.890000
1622.000000	162.190667	3.519448	594075.529279	1387.020000
1623.000000	162.290614	3.519134	593999.953356	1387.140000
1624.000000	162.390613	3.519030	593974.761381	1387.260000
1625.000000	162.490602	3.519030	593974.761381	1387.380000
1626.000000	162.590592	3.519448	594075.529279	1387.500000
1627.000000	162.690605	3.519239	594025.145330	1387.620000
1628.000000	162.790591	3.518925	593949.569406	1387.740000
1629.000000	162.890612	3.519134	593999.953356	1387.870000
1630.000000	162.990588	3.519134	593999.953356	1387.990000
1631.000000	163.090583	3.519343	594050.337305	1388.110000
1632.000000	163.190572	3.519343	594050.337305	1388.230000
1633.000000	163.290580	3.519343	594050.337305	1388.360000
1634.000000	163.390578	3.518925	593949.569406	1388.480000
1635.000000	163.490543	3.518716	593899.185457	1388.600000
1636.000000	163.590654	3.518820	593924.377432	1388.730000
1637.000000	163.690537	3.518716	593899.185457	1388.850000
1638.000000	163.790554	3.519134	593999.953356	1388.960000
1639.000000	163.890557	3.518820	593924.377432	1389.080000
1640.000000	163.990529	3.518820	593924.377432	1389.210000
1641.000000	164.090537	3.519134	593999.953356	1389.340000
1642.000000	164.190505	3.518716	593899.185457	1389.470000
1643.000000	164.290505	3.518820	593924.377432	1389.590000
1644.000000	164.390518	3.519030	593974.761381	1389.700000
1645.000000	164.490479	3.518820	593924.377432	1389.810000
1646.000000	164.590519	3.518716	593899.185457	1389.940000
1647.000000	164.690484	3.518611	593873.993483	1390.060000
1648.000000	164.790469	3.518716	593899.185457	1390.190000
1649.000000	164.890485	3.519239	594025.145330	1390.310000
1650.000000	164.990430	3.519030	593974.761381	1390.430000
1651.000000	165.090476	3.518298	593798.417559	1390.550000
1652.000000	165.190458	3.518925	593949.569406	1390.660000
1653.000000	165.290477	3.518298	593798.417559	1390.790000
1654.000000	165.390475	3.518820	593924.377432	1390.920000
1655.000000	165.490429	3.518507	593848.801508	1391.040000
1656.000000	165.590444	3.518611	593873.993483	1391.160000
1657.000000	165.690420	3.518402	593823.609534	1391.280000
1658.000000	165.790435	3.518820	593924.377432	1391.410000
1659.000000	165.890459	3.518402	593823.609534	1391.520000
1660.000000	165.990398	3.518716	593899.185457	1391.640000
1661.000000	166.090420	3.518507	593848.801508	1391.760000
1662.000000	166.190399	3.518402	593823.609534	1391.900000
1663.000000	166.290420	3.518716	593899.185457	1392.010000
1664.000000	166.390386	3.518402	593823.609534	1392.130000
1665.000000	166.490376	3.518611	593873.993483	1392.250000
1666.000000	166.590416	3.518089	593748.033610	1392.370000
1667.000000	166.690379	3.518716	593899.185457	1392.490000
1668.000000	166.790378	3.518925	593949.569406	1392.620000
1669.000000	166.890346	3.518089	593748.033610	1392.750000
1670.000000	166.990483	3.518089	593748.033610	1392.870000
1671.000000	167.090347	3.518611	593873.993483	1392.980000
1672.000000	167.190333	3.518507	593848.801508	1393.110000
1673.000000	167.290339	3.518298	593798.417559	1393.230000
1674.000000	167.390328	3.518402	593823.609534	1393.360000
1675.000000	167.490312	3.518193	593773.225585	1393.480000
1676.000000	167.590321	3.518298	593798.417559	1393.600000
1677.000000	167.690311	3.518402	593823.609534	1393.710000
1678.000000	167.790318	3.518298	593798.417559	1393.830000
1679.000000	167.890307	3.517880	593697.649661	1393.950000
1680.000000	167.990198	3.518402	593823.609534	1394.090000
1681.000000	168.090279	3.517984	593722.841636	1394.220000
1682.000000	168.190370	3.517775	593672.457687	1394.340000
1683.000000	168.290324	3.518193	593773.225585	1394.450000
1684.000000	168.390346	3.518507	593848.801508	1394.570000
1685.000000	168.490344	3.518089	593748.033610	1394.700000
1686.000000	168.590306	3.518089	593748.033610	1394.820000
1687.000000	168.690275	3.517880	593697.649661	1394.950000
1688.000000	168.790334	3.518298	593798.417559	1395.070000
1689.000000	168.890297	3.517775	593672.457687	1395.190000
1690.000000	168.990336	3.517566	593622.073737	1395.310000
1691.000000	169.090315	3.517880	593697.649661	1395.430000
1692.000000	169.190179	3.518820	593924.377432	1395.550000
1693.000000	169.290294	3.518402	593823.609534	1395.680000
1694.000000	169.390285	3.517984	593722.841636	1395.800000
1695.000000	169.490260	3.518193	593773.225585	1395.920000
1696.000000	169.590187	3.518298	593798.417559	1396.040000
1697.000000	169.690295	3.518298	593798.417559	1396.150000
1698.000000	169.790263	3.517671	593647.265712	1396.280000
1699.000000	169.890264	3.518298	593798.417559	1396.400000
1700.000000	169.990252	3.517462	593596.881763	1396.520000
1701.000000	170.090225	3.518298	593798.417559	1396.650000
1702.000000	170.190242	3.517775	593672.457687	1396.780000
1703.000000	170.290254	3.517984	593722.841636	1396.890000
1704.000000	170.390201	3.517775	593672.457687	1397.010000
1705.000000	170.490216	3.517671	593647.265712	1397.140000
1706.000000	170.590218	3.518193	593773.225585	1397.250000
1707.000000	170.690214	3.517984	593722.841636	1397.380000
1708.000000	170.790199	3.518298	593798.417559	1397.490000
1709.000000	170.890204	3.517671	593647.265712	1397.620000
1710.000000	170.990116	3.517984	593722.841636	1397.730000
1711.000000	171.090199	3.518193	593773.225585	1397.850000
1712.000000	171.190187	3.518298	593798.417559	1397.970000
1713.000000	171.290143	3.517984	593722.841636	1398.100000
1714.000000	171.390122	3.517566	593622.073737	1398.230000
1715.000000	171.490170	3.517671	593647.265712	1398.350000
1716.000000	171.590142	3.517462	593596.881763	1398.460000
1717.000000	171.690165	3.517671	593647.265712	1398.580000
1718.000000	171.790154	3.517880	593697.649661	1398.710000
1719.000000	171.890123	3.517775	593672.457687	1398.830000
1720.000000	171.990131	3.517880	593697.649661	1398.970000
1721.000000	172.090130	3.517671	593647.265712	1399.090000
1722.000000	172.190099	3.517984	593722.841636	1399.210000
1723.000000	172.290152	3.517671	593647.265712	1399.320000
1724.000000	172.390115	3.517566	593622.073737	1399.440000
1725.000000	172.490061	3.517984	593722.841636	1399.570000
1726.000000	172.590107	3.517044	593496.113865	1399.690000
1727.000000	172.690100	3.517671	593647.265712	1399.810000
1728.000000	172.790086	3.517462	593596.881763	1399.930000
1729.000000	172.890086	3.517148	593521.305839	1400.050000
1730.000000	172.990074	3.517462	593596.881763	1400.170000
1731.000000	173.090052	3.517462	593596.881763	1400.290000
1732.000000	173.190079	3.517880	593697.649661	1400.420000
1733.000000	173.290069	3.517357	593571.689788	1400.540000
1734.000000	173.390060	3.517357	593571.689788	1400.660000
1735.000000	173.490034	3.517671	593647.265712	1400.780000
1736.000000	173.590063	3.517462	593596.881763	1400.890000
1737.000000	173.690019	3.517775	593672.457687	1401.010000
1738.000000	173.790048	3.517462	593596.881763	1401.140000
1739.000000	173.889982	3.517566	593622.073737	1401.270000
1740.000000	173.990058	3.517462	593596.881763	1401.390000
1741.000000	174.090024	3.517044	593496.113865	1401.520000
1742.000000	174.190017	3.517357	593571.689788	1401.630000
1743.000000	174.289942	3.517462	593596.881763	1401.750000
1744.000000	174.390074	3.517148	593521.305839	1401.870000
1745.000000	174.489967	3.517357	593571.689788	1402.000000
1746.000000	174.589950	3.517671	593647.265712	1402.120000
1747.000000	174.689949	3.517357	593571.689788	1402.250000
1748.000000	174.790005	3.517462	593596.881763	1402.360000
1749.000000	174.889882	3.517253	593546.497814	1402.480000
1750.000000	174.989962	3.517148	593521.305839	1402.600000
1751.000000	175.089991	3.517253	593546.497814	1402.730000
1752.000000	175.189986	3.516835	593445.729916	1402.840000
1753.000000	175.289934	3.517357	593571.689788	1402.970000
1754.000000	175.389951	3.517148	593521.305839	1403.090000
1755.000000	175.489906	3.517253	593546.497814	1403.210000
1756.000000	175.589885	3.517357	593571.689788	1403.320000
1757.000000	175.689929	3.516835	593445.729916	1403.450000
1758.000000	175.789858	3.517775	593672.457687	1403.580000
1759.000000	175.889998	3.516939	593470.921890	1403.700000
1760.000000	175.989739	3.517148	593521.305839	1403.810000
1761.000000	176.089734	3.517148	593521.305839	1403.930000
1762.000000	176.189714	3.517462	593596.881763	1404.050000
1763.000000	176.289693	3.516939	593470.921890	1404.180000
1764.000000	176.389747	3.516939	593470.921890	1404.300000
1765.000000	176.489831	3.517044	593496.113865	1404.430000
1766.000000	176.589914	3.516835	593445.729916	1404.550000
1767.000000	176.689936	3.516939	593470.921890	1404.670000
1768.000000	176.789971	3.517044	593496.113865	1404.790000
1769.000000	176.889941	3.516835	593445.729916	1404.910000
1770.000000	176.989943	3.516835	593445.729916	1405.030000
1771.000000	177.089859	3.517148	593521.305839	1405.150000
1772.000000	177.189842	3.516626	593395.345967	1405.280000
1773.000000	177.289847	3.516312	593319.770043	1405.410000
1774.000000	177.389828	3.516626	593395.345967	1405.530000
1775.000000	177.489815	3.516939	593470.921890	1405.640000
1776.000000	177.589786	3.517148	593521.305839	1405.760000
1777.000000	177.689813	3.516730	593420.537941	1405.880000
1778.000000	177.789828	3.516626	593395.345967	1406.010000
1779.000000	177.889781	3.516626	593395.345967	1406.130000
1780.000000	177.989616	3.516626	593395.345967	1406.250000
1781.000000	178.089804	3.517357	593571.689788	1406.360000
1782.000000	178.189629	3.516730	593420.537941	1406.480000
1783.000000	178.289780	3.517148	593521.305839	1406.610000
1784.000000	178.389723	3.516626	593395.345967	1406.740000
1785.000000	178.489729	3.516730	593420.537941	1406.860000
1786.000000	178.589475	3.516417	593344.962018	1406.980000
1787.000000	178.689704	3.516521	593370.153992	1407.100000
1788.000000	178.789731	3.516208	593294.578069	1407.210000
1789.000000	178.889748	3.517044	593496.113865	1407.330000
1790.000000	178.989751	3.516626	593395.345967	1407.460000
1791.000000	179.089747	3.515999	593244.194119	1407.580000
1792.000000	179.189725	3.516626	593395.345967	1407.710000
1793.000000	179.289725	3.516626	593395.345967	1407.830000
1794.000000	179.389690	3.516626	593395.345967	1407.950000
1795.000000	179.489703	3.516939	593470.921890	1408.070000
1796.000000	179.589711	3.516312	593319.770043	1408.190000
1797.000000	179.689728	3.516521	593370.153992	1408.310000
1798.000000	179.789689	3.516312	593319.770043	1408.440000
1799.000000	179.889685	3.516626	593395.345967	1408.560000
1800.000000	179.989648	3.516626	593395.345967	1408.670000
