2023-02-05	09:23:49	Data rate [Hz]	10	
Sample Nb.	Measurement time	Voltage	Pressure	Weight
[-]	[s]	[V]	[Pa]	[g]
1.000000	0.099985	1.888158	200879.190718	0.000000
2.000000	0.200023	1.888680	201005.150591	0.000000
3.000000	0.299988	1.887635	200753.230845	4.130000
4.000000	0.399942	1.888471	200954.766642	4.130000
5.000000	0.499916	1.887949	200828.806769	4.130000
6.000000	0.600018	1.887426	200702.846896	4.130000
7.000000	0.699942	1.887740	200778.422820	4.130000
8.000000	0.800043	1.888053	200853.998744	4.130000
9.000000	0.900009	1.887844	200803.614795	4.130000
10.000000	0.999927	1.887740	200778.422820	4.130000
11.000000	1.099975	1.887844	200803.614795	4.140000
12.000000	1.199943	1.887949	200828.806769	4.140000
13.000000	1.299962	1.887635	200753.230845	4.140000
14.000000	1.399912	1.888053	200853.998744	4.140000
15.000000	1.499911	1.888158	200879.190718	4.140000
16.000000	1.599944	1.888367	200929.574667	4.140000
17.000000	1.699967	1.887740	200778.422820	4.140000
18.000000	1.799920	1.888367	200929.574667	4.140000
19.000000	1.899948	1.887949	200828.806769	4.140000
20.000000	1.999927	1.887531	200728.038871	4.140000
21.000000	2.099893	1.888053	200853.998744	4.140000
22.000000	2.199881	1.888158	200879.190718	4.140000
23.000000	2.299942	1.888785	201030.342565	4.140000
24.000000	2.399857	1.887635	200753.230845	4.140000
25.000000	2.499966	1.888367	200929.574667	4.140000
26.000000	2.599819	1.888053	200853.998744	4.140000
27.000000	2.699819	1.888471	200954.766642	4.140000
28.000000	2.799833	1.887844	200803.614795	4.140000
29.000000	2.899847	1.887949	200828.806769	4.140000
30.000000	2.999922	1.888053	200853.998744	4.140000
31.000000	3.099867	1.888053	200853.998744	4.140000
32.000000	3.199818	1.888262	200904.382693	4.140000
33.000000	3.299807	1.887844	200803.614795	4.140000
34.000000	3.399786	1.888576	200979.958616	4.140000
35.000000	3.499847	1.888367	200929.574667	4.140000
36.000000	3.599848	1.887740	200778.422820	4.140000
37.000000	3.699849	1.887635	200753.230845	4.140000
38.000000	3.799806	1.887844	200803.614795	4.140000
39.000000	3.899768	1.888367	200929.574667	4.140000
40.000000	3.999790	1.887635	200753.230845	4.140000
41.000000	4.099795	1.887740	200778.422820	4.140000
42.000000	4.199796	1.887740	200778.422820	4.140000
43.000000	4.299727	1.887844	200803.614795	4.140000
44.000000	4.399720	1.887949	200828.806769	4.140000
45.000000	4.499801	1.887217	200652.462947	4.140000
46.000000	4.599780	1.888367	200929.574667	4.140000
47.000000	4.699774	1.887844	200803.614795	4.140000
48.000000	4.799747	1.888471	200954.766642	4.160000
49.000000	4.899738	1.887426	200702.846896	4.180000
50.000000	4.999700	1.887740	200778.422820	4.190000
51.000000	5.099703	1.887949	200828.806769	4.200000
52.000000	5.199704	1.887949	200828.806769	4.200000
53.000000	5.299703	1.888471	200954.766642	4.200000
54.000000	5.399714	1.888262	200904.382693	4.200000
55.000000	5.499674	1.888158	200879.190718	4.210000
56.000000	5.599705	1.887635	200753.230845	4.210000
57.000000	5.699688	1.888158	200879.190718	4.210000
58.000000	5.799624	1.887635	200753.230845	4.210000
59.000000	5.899679	1.888053	200853.998744	4.210000
60.000000	5.999685	1.887949	200828.806769	4.210000
61.000000	6.099667	1.887531	200728.038871	4.210000
62.000000	6.199672	1.888053	200853.998744	4.210000
63.000000	6.299685	1.888158	200879.190718	4.220000
64.000000	6.399662	1.887322	200677.654922	4.220000
65.000000	6.499723	1.887844	200803.614795	4.220000
66.000000	6.599668	1.887635	200753.230845	4.220000
67.000000	6.699652	1.888053	200853.998744	4.220000
68.000000	6.799642	1.887844	200803.614795	4.220000
69.000000	6.899621	1.887531	200728.038871	4.220000
70.000000	6.999633	1.888158	200879.190718	4.230000
71.000000	7.099613	1.887635	200753.230845	4.230000
72.000000	7.199616	1.887949	200828.806769	4.230000
73.000000	7.299646	1.888158	200879.190718	4.230000
74.000000	7.399603	1.888053	200853.998744	4.230000
75.000000	7.499589	1.888158	200879.190718	4.230000
76.000000	7.599557	1.888053	200853.998744	4.230000
77.000000	7.699603	1.888785	201030.342565	4.230000
78.000000	7.799610	1.887217	200652.462947	4.230000
79.000000	7.899576	1.888053	200853.998744	4.230000
80.000000	7.999536	1.888680	201005.150591	4.230000
81.000000	8.099553	1.887949	200828.806769	4.230000
82.000000	8.199527	1.887949	200828.806769	4.230000
83.000000	8.299479	1.888262	200904.382693	4.230000
84.000000	8.399600	1.888471	200954.766642	4.240000
85.000000	8.499433	1.888053	200853.998744	4.240000
86.000000	8.599521	1.888262	200904.382693	4.240000
87.000000	8.699530	1.888053	200853.998744	4.240000
88.000000	8.799464	1.888471	200954.766642	4.240000
89.000000	8.899404	1.888053	200853.998744	4.240000
90.000000	8.999459	1.888367	200929.574667	4.240000
91.000000	9.099470	1.887635	200753.230845	4.240000
92.000000	9.199474	1.887531	200728.038871	4.240000
93.000000	9.299539	1.887426	200702.846896	4.240000
94.000000	9.399426	1.888262	200904.382693	4.240000
95.000000	9.499377	1.888367	200929.574667	4.240000
96.000000	9.599418	1.888367	200929.574667	4.240000
97.000000	9.699455	1.888262	200904.382693	4.240000
98.000000	9.799442	1.888053	200853.998744	4.240000
99.000000	9.899437	1.888158	200879.190718	4.240000
100.000000	9.999430	1.887740	200778.422820	4.240000
101.000000	10.099396	1.888471	200954.766642	4.240000
102.000000	10.199348	1.888367	200929.574667	4.240000
103.000000	10.299435	1.888262	200904.382693	4.240000
104.000000	10.399371	1.887844	200803.614795	4.240000
105.000000	10.499351	1.888367	200929.574667	4.240000
106.000000	10.599420	1.887531	200728.038871	4.240000
107.000000	10.699371	1.888053	200853.998744	4.240000
108.000000	10.799337	1.887635	200753.230845	4.240000
109.000000	10.899394	1.888367	200929.574667	4.240000
110.000000	10.999289	1.887844	200803.614795	4.240000
111.000000	11.099396	1.888262	200904.382693	4.240000
112.000000	11.199295	1.888367	200929.574667	4.240000
113.000000	11.299326	1.887531	200728.038871	4.240000
114.000000	11.399390	1.888471	200954.766642	4.240000
115.000000	11.499353	1.888262	200904.382693	4.240000
116.000000	11.599322	1.888471	200954.766642	4.240000
117.000000	11.699303	1.888785	201030.342565	4.250000
118.000000	11.799301	1.887949	200828.806769	4.250000
119.000000	11.899308	1.887844	200803.614795	4.250000
120.000000	11.999261	1.887949	200828.806769	4.250000
121.000000	12.099268	1.888367	200929.574667	4.250000
122.000000	12.199361	1.887844	200803.614795	4.250000
123.000000	12.299305	1.888680	201005.150591	4.250000
124.000000	12.399281	1.887844	200803.614795	4.250000
125.000000	12.499295	1.888576	200979.958616	4.250000
126.000000	12.599273	1.888576	200979.958616	4.250000
127.000000	12.699235	1.888367	200929.574667	4.250000
128.000000	12.799289	1.888680	201005.150591	4.250000
129.000000	12.899285	1.888158	200879.190718	4.250000
130.000000	12.999245	1.888367	200929.574667	4.250000
131.000000	13.099213	1.888471	200954.766642	4.250000
132.000000	13.199212	1.888680	201005.150591	4.250000
133.000000	13.299246	1.888680	201005.150591	4.250000
134.000000	13.399234	1.887531	200728.038871	4.250000
135.000000	13.499232	1.888053	200853.998744	4.250000
136.000000	13.599202	1.888785	201030.342565	4.250000
137.000000	13.699243	1.888158	200879.190718	4.250000
138.000000	13.799182	1.887635	200753.230845	4.250000
139.000000	13.899224	1.888367	200929.574667	4.250000
140.000000	13.999162	1.887949	200828.806769	4.250000
141.000000	14.099187	1.888367	200929.574667	4.250000
142.000000	14.199143	1.888262	200904.382693	4.250000
143.000000	14.299148	1.888053	200853.998744	4.260000
144.000000	14.399083	1.887740	200778.422820	4.260000
145.000000	14.499107	1.888158	200879.190718	4.260000
146.000000	14.599141	1.887844	200803.614795	4.260000
147.000000	14.699177	1.888576	200979.958616	4.260000
148.000000	14.799179	1.888576	200979.958616	4.300000
149.000000	14.899089	1.887844	200803.614795	4.310000
150.000000	14.999182	1.888262	200904.382693	4.320000
151.000000	15.099109	1.887740	200778.422820	4.350000
152.000000	15.199162	1.888367	200929.574667	4.370000
153.000000	15.299132	1.888471	200954.766642	4.390000
154.000000	15.399074	1.888785	201030.342565	4.400000
155.000000	15.499063	1.888680	201005.150591	4.400000
156.000000	15.599117	1.888576	200979.958616	4.400000
157.000000	15.699101	1.888680	201005.150591	4.410000
158.000000	15.799153	1.888471	200954.766642	4.410000
159.000000	15.899083	1.888680	201005.150591	4.410000
160.000000	15.998991	1.888994	201080.726514	4.410000
161.000000	16.099012	1.888262	200904.382693	4.410000
162.000000	16.199054	1.887740	200778.422820	4.410000
163.000000	16.299064	1.888785	201030.342565	4.410000
164.000000	16.399005	1.888367	200929.574667	4.410000
165.000000	16.499057	1.887635	200753.230845	4.410000
166.000000	16.598999	1.889098	201105.918489	4.410000
167.000000	16.699034	1.888367	200929.574667	4.410000
168.000000	16.799036	1.888158	200879.190718	4.410000
169.000000	16.898991	1.888053	200853.998744	4.410000
170.000000	16.999032	1.888367	200929.574667	4.410000
171.000000	17.099050	1.888576	200979.958616	4.410000
172.000000	17.198929	1.887635	200753.230845	4.410000
173.000000	17.298951	1.888053	200853.998744	4.410000
174.000000	17.398924	1.888785	201030.342565	4.410000
175.000000	17.499010	1.888785	201030.342565	4.410000
176.000000	17.598983	1.888471	200954.766642	4.410000
177.000000	17.698902	1.887949	200828.806769	4.410000
178.000000	17.798892	1.888158	200879.190718	4.410000
179.000000	17.898946	1.888053	200853.998744	4.410000
180.000000	17.998969	1.888262	200904.382693	4.410000
181.000000	18.098973	1.888576	200979.958616	4.410000
182.000000	18.198872	1.887635	200753.230845	4.410000
183.000000	18.298917	1.888158	200879.190718	4.410000
184.000000	18.398934	1.888889	201055.534540	4.410000
185.000000	18.498931	1.888367	200929.574667	4.410000
186.000000	18.598933	1.888576	200979.958616	4.410000
187.000000	18.698962	1.888576	200979.958616	4.410000
188.000000	18.798884	1.888262	200904.382693	4.410000
189.000000	18.898866	1.887740	200778.422820	4.410000
190.000000	18.998904	1.887844	200803.614795	4.410000
191.000000	19.098864	1.888367	200929.574667	4.410000
192.000000	19.198852	1.888158	200879.190718	4.410000
193.000000	19.298831	1.888262	200904.382693	4.420000
194.000000	19.398840	1.887740	200778.422820	4.420000
195.000000	19.498916	1.887949	200828.806769	4.420000
196.000000	19.598809	1.887949	200828.806769	4.420000
197.000000	19.698809	1.888471	200954.766642	4.420000
198.000000	19.798876	1.888262	200904.382693	4.420000
199.000000	19.898887	1.888889	201055.534540	4.420000
200.000000	19.998797	1.888367	200929.574667	4.420000
201.000000	20.098788	1.888367	200929.574667	4.420000
202.000000	20.198792	1.888053	200853.998744	4.420000
203.000000	20.298810	1.888367	200929.574667	4.420000
204.000000	20.398734	1.888576	200979.958616	4.420000
205.000000	20.498729	1.887740	200778.422820	4.420000
206.000000	20.598812	1.888262	200904.382693	4.420000
207.000000	20.698807	1.888053	200853.998744	4.420000
208.000000	20.798755	1.888158	200879.190718	4.420000
209.000000	20.898757	1.887008	200602.078998	4.420000
210.000000	20.998730	1.887844	200803.614795	4.420000
211.000000	21.098745	1.887322	200677.654922	4.420000
212.000000	21.198760	1.887322	200677.654922	4.420000
213.000000	21.298685	1.888367	200929.574667	4.430000
214.000000	21.398716	1.888471	200954.766642	4.430000
215.000000	21.498694	1.887531	200728.038871	4.430000
216.000000	21.598748	1.887426	200702.846896	4.430000
217.000000	21.698659	1.887844	200803.614795	4.430000
218.000000	21.798690	1.888262	200904.382693	4.430000
219.000000	21.898689	1.888158	200879.190718	4.430000
220.000000	21.998619	1.887949	200828.806769	4.430000
221.000000	22.098656	1.888053	200853.998744	4.430000
222.000000	22.198721	1.887635	200753.230845	4.430000
223.000000	22.298681	1.888158	200879.190718	4.430000
224.000000	22.398605	1.887008	200602.078998	4.430000
225.000000	22.498651	1.887949	200828.806769	4.430000
226.000000	22.598608	1.887949	200828.806769	4.430000
227.000000	22.698646	1.888262	200904.382693	4.430000
228.000000	22.798625	1.887740	200778.422820	4.430000
229.000000	22.898695	1.888471	200954.766642	4.440000
230.000000	22.998668	1.887635	200753.230845	4.440000
231.000000	23.098618	1.887740	200778.422820	4.440000
232.000000	23.198581	1.887426	200702.846896	4.440000
233.000000	23.298598	1.887844	200803.614795	4.440000
234.000000	23.398891	1.887635	200753.230845	4.440000
235.000000	23.498561	1.888262	200904.382693	4.440000
236.000000	23.598640	1.888053	200853.998744	4.440000
237.000000	23.698568	1.887949	200828.806769	4.440000
238.000000	23.798569	1.887217	200652.462947	4.440000
239.000000	23.898599	1.887322	200677.654922	4.440000
240.000000	23.998564	1.887322	200677.654922	4.440000
241.000000	24.098593	1.887949	200828.806769	4.440000
242.000000	24.198493	1.887844	200803.614795	4.440000
243.000000	24.298568	1.887322	200677.654922	4.440000
244.000000	24.398561	1.887635	200753.230845	4.440000
245.000000	24.498488	1.887217	200652.462947	4.440000
246.000000	24.598491	1.887531	200728.038871	4.440000
247.000000	24.698513	1.887949	200828.806769	4.450000
248.000000	24.798537	1.887531	200728.038871	4.450000
249.000000	24.898509	1.887740	200778.422820	4.450000
250.000000	24.998454	1.887112	200627.270973	4.450000
251.000000	25.098493	1.887635	200753.230845	4.450000
252.000000	25.198453	1.888053	200853.998744	4.470000
253.000000	25.298452	1.887635	200753.230845	4.480000
254.000000	25.398529	1.887531	200728.038871	4.500000
255.000000	25.498411	1.887949	200828.806769	4.520000
256.000000	25.598429	1.887008	200602.078998	4.540000
257.000000	25.698528	1.886799	200551.695049	4.560000
258.000000	25.798435	1.888053	200853.998744	4.580000
259.000000	25.898509	1.887112	200627.270973	4.600000
260.000000	25.998508	1.887844	200803.614795	4.600000
261.000000	26.098407	1.887635	200753.230845	4.610000
262.000000	26.198418	1.887635	200753.230845	4.610000
263.000000	26.298474	1.887322	200677.654922	4.610000
264.000000	26.398435	1.887426	200702.846896	4.610000
265.000000	26.498352	1.887531	200728.038871	4.610000
266.000000	26.598432	1.887426	200702.846896	4.610000
267.000000	26.698438	1.887844	200803.614795	4.610000
268.000000	26.798416	1.887217	200652.462947	4.610000
269.000000	26.898437	1.887322	200677.654922	4.610000
270.000000	26.998374	1.886799	200551.695049	4.610000
271.000000	27.098356	1.887217	200652.462947	4.620000
272.000000	27.198321	1.887217	200652.462947	4.620000
273.000000	27.298320	1.887112	200627.270973	4.620000
274.000000	27.398320	1.887217	200652.462947	4.620000
275.000000	27.498338	1.887322	200677.654922	4.620000
276.000000	27.598352	1.887217	200652.462947	4.620000
277.000000	27.698393	1.887008	200602.078998	4.620000
278.000000	27.798340	1.887740	200778.422820	4.620000
279.000000	27.898357	1.887008	200602.078998	4.620000
280.000000	27.998362	1.886903	200576.887024	4.620000
281.000000	28.098326	1.887531	200728.038871	4.620000
282.000000	28.198362	1.887635	200753.230845	4.620000
283.000000	28.298408	1.887112	200627.270973	4.620000
284.000000	28.398349	1.887322	200677.654922	4.620000
285.000000	28.498309	1.886590	200501.311100	4.620000
286.000000	28.598285	1.887008	200602.078998	4.620000
287.000000	28.698315	1.887531	200728.038871	4.620000
288.000000	28.798336	1.886590	200501.311100	4.620000
289.000000	28.898282	1.887217	200652.462947	4.620000
290.000000	28.998320	1.887322	200677.654922	4.620000
291.000000	29.098321	1.887112	200627.270973	4.620000
292.000000	29.198291	1.886381	200450.927151	4.620000
293.000000	29.298234	1.886485	200476.119126	4.620000
294.000000	29.398272	1.886485	200476.119126	4.620000
295.000000	29.498234	1.887426	200702.846896	4.620000
296.000000	29.598279	1.886590	200501.311100	4.620000
297.000000	29.698204	1.887008	200602.078998	4.620000
298.000000	29.798232	1.887531	200728.038871	4.620000
299.000000	29.898271	1.887217	200652.462947	4.620000
300.000000	29.998267	1.886799	200551.695049	4.620000
301.000000	30.098358	1.887217	200652.462947	4.620000
302.000000	30.198271	1.886590	200501.311100	4.620000
303.000000	30.298174	1.887112	200627.270973	4.620000
304.000000	30.398187	1.887217	200652.462947	4.620000
305.000000	30.498206	1.886903	200576.887024	4.620000
306.000000	30.598210	1.886590	200501.311100	4.620000
307.000000	30.698134	1.887008	200602.078998	4.620000
308.000000	30.798153	1.886590	200501.311100	4.620000
309.000000	30.898150	1.886903	200576.887024	4.620000
310.000000	30.998141	1.886799	200551.695049	4.620000
311.000000	31.098136	1.887008	200602.078998	4.620000
312.000000	31.198112	1.887217	200652.462947	4.620000
313.000000	31.298122	1.887949	200828.806769	4.620000
314.000000	31.398101	1.886694	200526.503075	4.620000
315.000000	31.498160	1.886799	200551.695049	4.620000
316.000000	31.598137	1.886381	200450.927151	4.620000
317.000000	31.698089	1.887217	200652.462947	4.620000
318.000000	31.798105	1.887112	200627.270973	4.620000
319.000000	31.898145	1.887112	200627.270973	4.620000
320.000000	31.998139	1.887008	200602.078998	4.620000
321.000000	32.098104	1.887531	200728.038871	4.620000
322.000000	32.198060	1.886903	200576.887024	4.620000
323.000000	32.298117	1.887008	200602.078998	4.620000
324.000000	32.398119	1.887217	200652.462947	4.620000
325.000000	32.498065	1.886694	200526.503075	4.620000
326.000000	32.598026	1.886381	200450.927151	4.620000
327.000000	32.698071	1.886694	200526.503075	4.620000
328.000000	32.798069	1.887426	200702.846896	4.620000
329.000000	32.898083	1.886694	200526.503075	4.620000
330.000000	32.998096	1.887008	200602.078998	4.620000
331.000000	33.098099	1.886590	200501.311100	4.620000
332.000000	33.198026	1.886381	200450.927151	4.620000
333.000000	33.298079	1.887112	200627.270973	4.620000
334.000000	33.397985	1.887008	200602.078998	4.620000
335.000000	33.498030	1.886590	200501.311100	4.620000
336.000000	33.598004	1.886485	200476.119126	4.620000
337.000000	33.697993	1.887217	200652.462947	4.630000
338.000000	33.798035	1.886694	200526.503075	4.630000
339.000000	33.898028	1.886903	200576.887024	4.630000
340.000000	33.997960	1.887008	200602.078998	4.630000
341.000000	34.098006	1.886799	200551.695049	4.630000
342.000000	34.198002	1.886485	200476.119126	4.630000
343.000000	34.297926	1.886903	200576.887024	4.630000
344.000000	34.397975	1.886799	200551.695049	4.630000
345.000000	34.497916	1.886903	200576.887024	4.630000
346.000000	34.597955	1.887635	200753.230845	4.630000
347.000000	34.697897	1.886590	200501.311100	4.630000
348.000000	34.797951	1.887112	200627.270973	4.630000
349.000000	34.897981	1.886590	200501.311100	4.630000
350.000000	34.997972	1.886381	200450.927151	4.630000
351.000000	35.097932	1.886485	200476.119126	4.630000
352.000000	35.197888	1.886172	200400.543202	4.630000
353.000000	35.297865	1.886485	200476.119126	4.630000
354.000000	35.397927	1.886276	200425.735176	4.630000
355.000000	35.497898	1.887008	200602.078998	4.630000
356.000000	35.597894	1.886799	200551.695049	4.630000
357.000000	35.697873	1.886590	200501.311100	4.630000
358.000000	35.797831	1.887112	200627.270973	4.670000
359.000000	35.897852	1.887322	200677.654922	4.680000
360.000000	35.997785	1.886381	200450.927151	4.690000
361.000000	36.097788	1.886694	200526.503075	4.700000
362.000000	36.197860	1.887322	200677.654922	4.700000
363.000000	36.297901	1.886799	200551.695049	4.710000
364.000000	36.397907	1.886276	200425.735176	4.710000
365.000000	36.497780	1.887008	200602.078998	4.710000
366.000000	36.597836	1.886799	200551.695049	4.710000
367.000000	36.697767	1.887531	200728.038871	4.710000
368.000000	36.797797	1.886590	200501.311100	4.710000
369.000000	36.897761	1.886903	200576.887024	4.710000
370.000000	36.997790	1.886694	200526.503075	4.710000
371.000000	37.097853	1.887844	200803.614795	4.720000
372.000000	37.197772	1.886276	200425.735176	4.720000
373.000000	37.297809	1.887426	200702.846896	4.720000
374.000000	37.397735	1.886590	200501.311100	4.720000
375.000000	37.497787	1.886485	200476.119126	4.720000
376.000000	37.597801	1.886799	200551.695049	4.720000
377.000000	37.697798	1.887112	200627.270973	4.720000
378.000000	37.797757	1.887008	200602.078998	4.720000
379.000000	37.897734	1.887217	200652.462947	4.720000
380.000000	37.997725	1.886590	200501.311100	4.720000
381.000000	38.097781	1.887322	200677.654922	4.720000
382.000000	38.197724	1.885754	200299.775304	4.720000
383.000000	38.297723	1.886381	200450.927151	4.720000
384.000000	38.397719	1.886590	200501.311100	4.720000
385.000000	38.497720	1.886381	200450.927151	4.720000
386.000000	38.597690	1.887635	200753.230845	4.720000
387.000000	38.697755	1.886694	200526.503075	4.720000
388.000000	38.797714	1.886799	200551.695049	4.720000
389.000000	38.897732	1.886799	200551.695049	4.750000
390.000000	38.997720	1.885963	200350.159253	4.750000
391.000000	39.097669	1.887008	200602.078998	4.750000
392.000000	39.197763	1.886381	200450.927151	4.750000
393.000000	39.297644	1.887217	200652.462947	4.760000
394.000000	39.397698	1.886381	200450.927151	4.760000
395.000000	39.497662	1.886590	200501.311100	4.760000
396.000000	39.597647	1.886694	200526.503075	4.760000
397.000000	39.697592	1.886590	200501.311100	4.760000
398.000000	39.797632	1.887217	200652.462947	4.760000
399.000000	39.897656	1.887426	200702.846896	4.760000
400.000000	39.997601	1.887426	200702.846896	4.760000
401.000000	40.097576	1.887740	200778.422820	4.760000
402.000000	40.197592	1.886903	200576.887024	4.760000
403.000000	40.297617	1.886276	200425.735176	4.760000
404.000000	40.397719	1.887426	200702.846896	4.760000
405.000000	40.497581	1.886485	200476.119126	4.760000
406.000000	40.597531	1.886485	200476.119126	4.760000
407.000000	40.697537	1.886590	200501.311100	4.760000
408.000000	40.797625	1.887740	200778.422820	4.760000
409.000000	40.897586	1.887112	200627.270973	4.760000
410.000000	40.997521	1.886276	200425.735176	4.760000
411.000000	41.097514	1.886485	200476.119126	4.760000
412.000000	41.197627	1.886799	200551.695049	4.760000
413.000000	41.297542	1.887322	200677.654922	4.760000
414.000000	41.397570	1.887008	200602.078998	4.760000
415.000000	41.497495	1.886590	200501.311100	4.760000
416.000000	41.597494	1.886590	200501.311100	4.760000
417.000000	41.697457	1.886485	200476.119126	4.760000
418.000000	41.797563	1.887112	200627.270973	4.760000
419.000000	41.897514	1.887844	200803.614795	4.760000
420.000000	41.997537	1.886485	200476.119126	4.760000
421.000000	42.097522	1.886903	200576.887024	4.760000
422.000000	42.197473	1.886903	200576.887024	4.760000
423.000000	42.297438	1.886903	200576.887024	4.760000
424.000000	42.400801	1.886590	200501.311100	4.760000
425.000000	42.497501	1.887322	200677.654922	4.760000
426.000000	42.597494	1.886485	200476.119126	4.760000
427.000000	42.697499	1.886903	200576.887024	4.760000
428.000000	42.797395	1.886172	200400.543202	4.760000
429.000000	42.897443	1.887426	200702.846896	4.760000
430.000000	42.997421	1.886694	200526.503075	4.760000
431.000000	43.097425	1.886694	200526.503075	4.760000
432.000000	43.197443	1.886485	200476.119126	4.760000
433.000000	43.297425	1.886903	200576.887024	4.760000
434.000000	43.397458	1.887112	200627.270973	4.760000
435.000000	43.497408	1.887112	200627.270973	4.760000
436.000000	43.597427	1.886694	200526.503075	4.760000
437.000000	43.697453	1.886276	200425.735176	4.760000
438.000000	43.797401	1.886381	200450.927151	4.760000
439.000000	43.897417	1.887112	200627.270973	4.760000
440.000000	43.997413	1.886485	200476.119126	4.760000
441.000000	44.097349	1.887426	200702.846896	4.760000
442.000000	44.197424	1.886694	200526.503075	4.760000
443.000000	44.297404	1.886694	200526.503075	4.760000
444.000000	44.398782	1.887112	200627.270973	4.760000
445.000000	44.497348	1.886799	200551.695049	4.760000
446.000000	44.597343	1.887112	200627.270973	4.760000
447.000000	44.697387	1.887217	200652.462947	4.760000
448.000000	44.797369	1.886067	200375.351227	4.760000
449.000000	44.897358	1.887008	200602.078998	4.760000
450.000000	44.997346	1.886485	200476.119126	4.760000
451.000000	45.097352	1.887112	200627.270973	4.760000
452.000000	45.197273	1.886485	200476.119126	4.760000
453.000000	45.297304	1.886276	200425.735176	4.760000
454.000000	45.397295	1.886381	200450.927151	4.760000
455.000000	45.497259	1.886590	200501.311100	4.760000
456.000000	45.597264	1.886485	200476.119126	4.760000
457.000000	45.697272	1.886172	200400.543202	4.760000
458.000000	45.797245	1.887112	200627.270973	4.760000
459.000000	45.897292	1.885963	200350.159253	4.760000
460.000000	45.997252	1.886590	200501.311100	4.760000
461.000000	46.097236	1.886485	200476.119126	4.790000
462.000000	46.197349	1.885858	200324.967278	4.790000
463.000000	46.297304	1.886276	200425.735176	4.800000
464.000000	46.397188	1.886590	200501.311100	4.800000
465.000000	46.497227	1.886172	200400.543202	4.800000
466.000000	46.597322	1.886276	200425.735176	4.800000
467.000000	46.697146	1.886172	200400.543202	4.820000
468.000000	46.797240	1.886590	200501.311100	4.830000
469.000000	46.897229	1.886276	200425.735176	4.850000
470.000000	46.997224	1.886694	200526.503075	4.860000
471.000000	47.097218	1.886590	200501.311100	4.860000
472.000000	47.197157	1.886276	200425.735176	4.870000
473.000000	47.297218	1.887426	200702.846896	4.870000
474.000000	47.397202	1.886590	200501.311100	4.870000
475.000000	47.497148	1.887426	200702.846896	4.870000
476.000000	47.597166	1.887322	200677.654922	4.880000
477.000000	47.697139	1.887426	200702.846896	4.880000
478.000000	47.797180	1.886067	200375.351227	4.880000
479.000000	47.897129	1.886276	200425.735176	4.880000
480.000000	47.997158	1.886172	200400.543202	4.880000
481.000000	48.097168	1.886172	200400.543202	4.880000
482.000000	48.197134	1.886485	200476.119126	4.880000
483.000000	48.297112	1.886903	200576.887024	4.880000
484.000000	48.397132	1.886903	200576.887024	4.880000
485.000000	48.497156	1.885963	200350.159253	4.880000
486.000000	48.597144	1.887322	200677.654922	4.880000
487.000000	48.697135	1.886276	200425.735176	4.880000
488.000000	48.797085	1.886276	200425.735176	4.880000
489.000000	48.897063	1.886799	200551.695049	4.880000
490.000000	48.997016	1.886903	200576.887024	4.880000
491.000000	49.097040	1.886276	200425.735176	4.880000
492.000000	49.197094	1.887112	200627.270973	4.880000
493.000000	49.297082	1.886694	200526.503075	4.880000
494.000000	49.397039	1.885963	200350.159253	4.880000
495.000000	49.497075	1.886381	200450.927151	4.880000
496.000000	49.597085	1.886590	200501.311100	4.880000
497.000000	49.697075	1.886694	200526.503075	4.880000
498.000000	49.797072	1.886590	200501.311100	4.880000
499.000000	49.897041	1.886590	200501.311100	4.880000
500.000000	49.996994	1.887112	200627.270973	4.880000
501.000000	50.096971	1.886276	200425.735176	4.880000
502.000000	50.196999	1.887008	200602.078998	4.880000
503.000000	50.297029	1.886381	200450.927151	4.880000
504.000000	50.396983	1.886276	200425.735176	4.880000
505.000000	50.497021	1.885754	200299.775304	4.880000
506.000000	50.596933	1.886067	200375.351227	4.880000
507.000000	50.697024	1.886799	200551.695049	4.880000
508.000000	50.797014	1.885963	200350.159253	4.880000
509.000000	50.897008	1.886903	200576.887024	4.880000
510.000000	50.996987	1.885649	200274.583329	4.880000
511.000000	51.096994	1.886590	200501.311100	4.880000
512.000000	51.196963	1.886590	200501.311100	4.880000
513.000000	51.296968	1.886590	200501.311100	4.880000
514.000000	51.396971	1.886276	200425.735176	4.880000
515.000000	51.496955	1.886590	200501.311100	4.880000
516.000000	51.596963	1.886381	200450.927151	4.880000
517.000000	51.696950	1.885963	200350.159253	4.880000
518.000000	51.796881	1.886485	200476.119126	4.880000
519.000000	51.896871	1.886276	200425.735176	4.880000
520.000000	51.996950	1.886694	200526.503075	4.880000
521.000000	52.096875	1.885963	200350.159253	4.880000
522.000000	52.196891	1.886590	200501.311100	4.880000
523.000000	52.296873	1.886799	200551.695049	4.880000
524.000000	52.396837	1.886172	200400.543202	4.880000
525.000000	52.496879	1.885754	200299.775304	4.880000
526.000000	52.596904	1.885649	200274.583329	4.880000
527.000000	52.696876	1.884918	200098.239508	4.880000
528.000000	52.796779	1.886694	200526.503075	4.890000
529.000000	52.896815	1.885858	200324.967278	4.920000
530.000000	52.996863	1.886276	200425.735176	4.930000
531.000000	53.096783	1.886067	200375.351227	4.950000
532.000000	53.196849	1.886381	200450.927151	4.960000
533.000000	53.296897	1.885754	200299.775304	4.960000
534.000000	53.396843	1.885858	200324.967278	4.960000
535.000000	53.496791	1.886172	200400.543202	4.960000
536.000000	53.596780	1.885754	200299.775304	4.960000
537.000000	53.696772	1.885858	200324.967278	4.970000
538.000000	53.796843	1.886381	200450.927151	4.970000
539.000000	53.896780	1.886381	200450.927151	4.970000
540.000000	53.996820	1.885649	200274.583329	4.970000
541.000000	54.096778	1.886276	200425.735176	4.970000
542.000000	54.196741	1.886485	200476.119126	4.970000
543.000000	54.296726	1.886172	200400.543202	4.970000
544.000000	54.396737	1.885754	200299.775304	4.970000
545.000000	54.496774	1.885440	200224.199380	4.970000
546.000000	54.596789	1.885336	200199.007406	4.970000
547.000000	54.696736	1.885440	200224.199380	4.970000
548.000000	54.796737	1.886067	200375.351227	4.970000
549.000000	54.896727	1.885963	200350.159253	4.970000
550.000000	54.996780	1.885963	200350.159253	4.970000
551.000000	55.096757	1.886067	200375.351227	4.970000
552.000000	55.196709	1.885963	200350.159253	4.970000
553.000000	55.296709	1.886276	200425.735176	4.970000
554.000000	55.396716	1.886067	200375.351227	4.970000
555.000000	55.496658	1.885649	200274.583329	4.970000
556.000000	55.596635	1.885963	200350.159253	4.970000
557.000000	55.696646	1.886067	200375.351227	4.970000
558.000000	55.796682	1.885127	200148.623457	4.970000
559.000000	55.896694	1.885754	200299.775304	4.970000
560.000000	55.996608	1.885440	200224.199380	4.970000
561.000000	56.096701	1.885754	200299.775304	4.970000
562.000000	56.196610	1.885754	200299.775304	4.970000
563.000000	56.296563	1.885754	200299.775304	4.970000
564.000000	56.396575	1.885231	200173.815431	4.970000
565.000000	56.496623	1.886276	200425.735176	4.970000
566.000000	56.596613	1.885649	200274.583329	4.970000
567.000000	56.696650	1.886172	200400.543202	4.970000
568.000000	56.796637	1.886172	200400.543202	4.970000
569.000000	56.896646	1.886799	200551.695049	4.970000
570.000000	56.996625	1.886276	200425.735176	4.970000
571.000000	57.096608	1.885649	200274.583329	4.970000
572.000000	57.196563	1.886067	200375.351227	4.970000
573.000000	57.296636	1.885545	200249.391355	4.970000
574.000000	57.396618	1.885231	200173.815431	4.970000
575.000000	57.496614	1.885231	200173.815431	4.980000
576.000000	57.596547	1.886067	200375.351227	5.000000
577.000000	57.696603	1.885649	200274.583329	5.010000
578.000000	57.796507	1.885231	200173.815431	5.030000
579.000000	57.896589	1.885858	200324.967278	5.050000
580.000000	57.996560	1.885754	200299.775304	5.050000
581.000000	58.096518	1.885858	200324.967278	5.050000
582.000000	58.196509	1.885336	200199.007406	5.060000
583.000000	58.296525	1.885440	200224.199380	5.060000
584.000000	58.396563	1.885858	200324.967278	5.060000
585.000000	58.496495	1.886067	200375.351227	5.060000
586.000000	58.596531	1.885440	200224.199380	5.060000
587.000000	58.696523	1.885336	200199.007406	5.060000
588.000000	58.796533	1.885127	200148.623457	5.060000
589.000000	58.896533	1.885858	200324.967278	5.060000
590.000000	58.996491	1.885649	200274.583329	5.060000
591.000000	59.096509	1.884918	200098.239508	5.060000
592.000000	59.196452	1.885440	200224.199380	5.060000
593.000000	59.296504	1.885963	200350.159253	5.060000
594.000000	59.396498	1.885858	200324.967278	5.060000
595.000000	59.496438	1.885127	200148.623457	5.060000
596.000000	59.596466	1.885649	200274.583329	5.060000
597.000000	59.696391	1.885440	200224.199380	5.060000
598.000000	59.796441	1.884813	200073.047533	5.060000
599.000000	59.896492	1.885336	200199.007406	5.060000
600.000000	59.996419	1.885754	200299.775304	5.080000
601.000000	60.096416	1.886067	200375.351227	5.080000
602.000000	60.196449	1.885649	200274.583329	5.090000
603.000000	60.296367	1.885336	200199.007406	5.090000
604.000000	60.396420	1.885231	200173.815431	5.090000
605.000000	60.496436	1.884918	200098.239508	5.090000
606.000000	60.596335	1.885858	200324.967278	5.090000
607.000000	60.696348	1.885231	200173.815431	5.090000
608.000000	60.796368	1.885754	200299.775304	5.100000
609.000000	60.896400	1.884918	200098.239508	5.100000
610.000000	60.996376	1.885127	200148.623457	5.100000
611.000000	61.096303	1.884709	200047.855558	5.100000
612.000000	61.196346	1.884709	200047.855558	5.100000
613.000000	61.296407	1.885336	200199.007406	5.100000
614.000000	61.396317	1.885440	200224.199380	5.100000
615.000000	61.496327	1.885022	200123.431482	5.100000
616.000000	61.596339	1.885231	200173.815431	5.100000
617.000000	61.696377	1.885545	200249.391355	5.100000
618.000000	61.796357	1.884918	200098.239508	5.100000
619.000000	61.896291	1.885754	200299.775304	5.100000
620.000000	61.996277	1.884918	200098.239508	5.100000
621.000000	62.096331	1.885440	200224.199380	5.100000
622.000000	62.196282	1.885127	200148.623457	5.100000
623.000000	62.296321	1.885022	200123.431482	5.100000
624.000000	62.396268	1.884604	200022.663584	5.100000
625.000000	62.496304	1.885754	200299.775304	5.100000
626.000000	62.596251	1.885336	200199.007406	5.100000
627.000000	62.696344	1.884500	199997.471609	5.100000
628.000000	62.796309	1.885231	200173.815431	5.100000
629.000000	62.896319	1.885231	200173.815431	5.100000
630.000000	62.996264	1.884918	200098.239508	5.100000
631.000000	63.096195	1.885336	200199.007406	5.100000
632.000000	63.196229	1.884813	200073.047533	5.100000
633.000000	63.296193	1.884709	200047.855558	5.100000
634.000000	63.396282	1.884709	200047.855558	5.100000
635.000000	63.496225	1.884082	199896.703711	5.100000
636.000000	63.596246	1.885545	200249.391355	5.100000
637.000000	63.696214	1.885231	200173.815431	5.100000
638.000000	63.796249	1.885649	200274.583329	5.100000
639.000000	63.896190	1.885127	200148.623457	5.100000
640.000000	63.996237	1.884918	200098.239508	5.100000
641.000000	64.096172	1.886381	200450.927151	5.100000
642.000000	64.196157	1.885127	200148.623457	5.100000
643.000000	64.296210	1.885336	200199.007406	5.100000
644.000000	64.396118	1.885127	200148.623457	5.100000
645.000000	64.496171	1.884813	200073.047533	5.100000
646.000000	64.596163	1.885022	200123.431482	5.100000
647.000000	64.696132	1.884500	199997.471609	5.100000
648.000000	64.796170	1.885336	200199.007406	5.100000
649.000000	64.896182	1.885545	200249.391355	5.100000
650.000000	64.996168	1.884604	200022.663584	5.100000
651.000000	65.096104	1.884604	200022.663584	5.100000
652.000000	65.196178	1.884709	200047.855558	5.100000
653.000000	65.296139	1.884709	200047.855558	5.100000
654.000000	65.396114	1.884813	200073.047533	5.100000
655.000000	65.496090	1.885127	200148.623457	5.100000
656.000000	65.596131	1.884395	199972.279635	5.100000
657.000000	65.696108	1.885545	200249.391355	5.100000
658.000000	65.796053	1.883977	199871.511737	5.100000
659.000000	65.896052	1.885231	200173.815431	5.100000
660.000000	65.996097	1.884918	200098.239508	5.100000
661.000000	66.096091	1.885022	200123.431482	5.100000
662.000000	66.196048	1.885127	200148.623457	5.100000
663.000000	66.296100	1.884500	199997.471609	5.100000
664.000000	66.396048	1.884500	199997.471609	5.100000
665.000000	66.496090	1.884709	200047.855558	5.100000
666.000000	66.596026	1.884500	199997.471609	5.100000
667.000000	66.696007	1.884082	199896.703711	5.100000
668.000000	66.796065	1.885022	200123.431482	5.100000
669.000000	66.896012	1.884500	199997.471609	5.100000
670.000000	66.996014	1.885231	200173.815431	5.100000
671.000000	67.096021	1.884918	200098.239508	5.100000
672.000000	67.195955	1.884813	200073.047533	5.100000
673.000000	67.295947	1.884813	200073.047533	5.100000
674.000000	67.395998	1.884604	200022.663584	5.100000
675.000000	67.496037	1.885127	200148.623457	5.100000
676.000000	67.595937	1.884395	199972.279635	5.100000
677.000000	67.695889	1.884709	200047.855558	5.100000
678.000000	67.796006	1.884709	200047.855558	5.100000
679.000000	67.895935	1.884918	200098.239508	5.100000
680.000000	67.995980	1.884604	200022.663584	5.100000
681.000000	68.095957	1.884500	199997.471609	5.100000
682.000000	68.195949	1.885336	200199.007406	5.110000
683.000000	68.296011	1.884813	200073.047533	5.110000
684.000000	68.395887	1.885127	200148.623457	5.110000
685.000000	68.495936	1.885440	200224.199380	5.140000
686.000000	68.595939	1.885022	200123.431482	5.150000
687.000000	68.695903	1.884918	200098.239508	5.170000
688.000000	68.795861	1.885231	200173.815431	5.190000
689.000000	68.895903	1.885022	200123.431482	5.200000
690.000000	68.995860	1.884918	200098.239508	5.210000
691.000000	69.095907	1.884186	199921.895686	5.210000
692.000000	69.195944	1.885545	200249.391355	5.210000
693.000000	69.295913	1.884604	200022.663584	5.210000
694.000000	69.395886	1.884500	199997.471609	5.210000
695.000000	69.495853	1.885022	200123.431482	5.210000
696.000000	69.595850	1.884709	200047.855558	5.220000
697.000000	69.695882	1.884500	199997.471609	5.220000
698.000000	69.795879	1.883977	199871.511737	5.220000
699.000000	69.895783	1.884709	200047.855558	5.220000
700.000000	69.995942	1.885022	200123.431482	5.220000
701.000000	70.096001	1.884604	200022.663584	5.220000
702.000000	70.196007	1.884813	200073.047533	5.220000
703.000000	70.295909	1.886067	200375.351227	5.220000
704.000000	70.395752	1.884918	200098.239508	5.220000
705.000000	70.495890	1.884918	200098.239508	5.220000
706.000000	70.595862	1.884813	200073.047533	5.220000
707.000000	70.695820	1.885022	200123.431482	5.220000
708.000000	70.795875	1.884918	200098.239508	5.220000
709.000000	70.895803	1.885649	200274.583329	5.220000
710.000000	70.995783	1.885754	200299.775304	5.220000
711.000000	71.095800	1.884813	200073.047533	5.220000
712.000000	71.195773	1.884813	200073.047533	5.220000
713.000000	71.295779	1.885022	200123.431482	5.220000
714.000000	71.395746	1.884918	200098.239508	5.220000
715.000000	71.495758	1.885022	200123.431482	5.220000
716.000000	71.595777	1.885545	200249.391355	5.220000
717.000000	71.695757	1.885336	200199.007406	5.220000
718.000000	71.795701	1.884186	199921.895686	5.220000
719.000000	71.895753	1.884500	199997.471609	5.220000
720.000000	71.995734	1.884709	200047.855558	5.220000
721.000000	72.095703	1.885231	200173.815431	5.220000
722.000000	72.195668	1.884500	199997.471609	5.220000
723.000000	72.295694	1.884918	200098.239508	5.220000
724.000000	72.395725	1.884395	199972.279635	5.220000
725.000000	72.495647	1.884813	200073.047533	5.220000
726.000000	72.595701	1.884395	199972.279635	5.220000
727.000000	72.695683	1.885127	200148.623457	5.220000
728.000000	72.795697	1.884813	200073.047533	5.220000
729.000000	72.895632	1.884918	200098.239508	5.220000
730.000000	72.995686	1.884291	199947.087660	5.220000
731.000000	73.095609	1.884395	199972.279635	5.220000
732.000000	73.195667	1.884291	199947.087660	5.220000
733.000000	73.295678	1.884604	200022.663584	5.220000
734.000000	73.395564	1.884186	199921.895686	5.220000
735.000000	73.495652	1.884918	200098.239508	5.220000
736.000000	73.595592	1.885127	200148.623457	5.220000
737.000000	73.695630	1.885127	200148.623457	5.220000
738.000000	73.795619	1.885022	200123.431482	5.220000
739.000000	73.895574	1.885231	200173.815431	5.220000
740.000000	73.995618	1.884395	199972.279635	5.220000
741.000000	74.095613	1.884918	200098.239508	5.220000
742.000000	74.195570	1.884604	200022.663584	5.220000
743.000000	74.295560	1.884918	200098.239508	5.220000
744.000000	74.395523	1.884291	199947.087660	5.230000
745.000000	74.495573	1.883872	199846.319762	5.240000
746.000000	74.595541	1.884918	200098.239508	5.250000
747.000000	74.695542	1.885231	200173.815431	5.250000
748.000000	74.795513	1.884395	199972.279635	5.250000
749.000000	74.895485	1.884500	199997.471609	5.250000
750.000000	74.995560	1.884500	199997.471609	5.250000
751.000000	75.095631	1.885336	200199.007406	5.250000
752.000000	75.195535	1.884709	200047.855558	5.250000
753.000000	75.295528	1.884291	199947.087660	5.250000
754.000000	75.395486	1.884291	199947.087660	5.250000
755.000000	75.495461	1.884082	199896.703711	5.250000
756.000000	75.595524	1.884604	200022.663584	5.260000
757.000000	75.695521	1.884500	199997.471609	5.260000
758.000000	75.795478	1.884604	200022.663584	5.260000
759.000000	75.895492	1.885127	200148.623457	5.260000
760.000000	75.995495	1.884186	199921.895686	5.260000
761.000000	76.095461	1.883663	199795.935813	5.260000
762.000000	76.195449	1.884709	200047.855558	5.260000
763.000000	76.295498	1.884813	200073.047533	5.260000
764.000000	76.395385	1.885127	200148.623457	5.260000
765.000000	76.495407	1.885231	200173.815431	5.260000
766.000000	76.595405	1.884709	200047.855558	5.260000
767.000000	76.695426	1.885127	200148.623457	5.260000
768.000000	76.795451	1.884604	200022.663584	5.260000
769.000000	76.895424	1.884500	199997.471609	5.260000
770.000000	76.995414	1.884500	199997.471609	5.260000
771.000000	77.095451	1.885022	200123.431482	5.260000
772.000000	77.195405	1.884500	199997.471609	5.260000
773.000000	77.295419	1.884709	200047.855558	5.260000
774.000000	77.395422	1.884813	200073.047533	5.260000
775.000000	77.495393	1.884186	199921.895686	5.260000
776.000000	77.595359	1.884918	200098.239508	5.260000
777.000000	77.695409	1.884291	199947.087660	5.260000
778.000000	77.795414	1.885022	200123.431482	5.260000
779.000000	77.895387	1.884500	199997.471609	5.260000
780.000000	77.995359	1.885545	200249.391355	5.260000
781.000000	78.095387	1.884813	200073.047533	5.260000
782.000000	78.195332	1.885127	200148.623457	5.260000
783.000000	78.295357	1.884186	199921.895686	5.260000
784.000000	78.395304	1.884395	199972.279635	5.260000
785.000000	78.495399	1.884604	200022.663584	5.260000
786.000000	78.595372	1.884291	199947.087660	5.260000
787.000000	78.695299	1.885022	200123.431482	5.260000
788.000000	78.795355	1.884604	200022.663584	5.260000
789.000000	78.895325	1.885127	200148.623457	5.260000
790.000000	78.995304	1.884291	199947.087660	5.260000
791.000000	79.095304	1.884395	199972.279635	5.260000
792.000000	79.195242	1.884291	199947.087660	5.260000
793.000000	79.295275	1.885022	200123.431482	5.260000
794.000000	79.395298	1.884709	200047.855558	5.260000
795.000000	79.495287	1.885127	200148.623457	5.260000
796.000000	79.595272	1.884604	200022.663584	5.260000
797.000000	79.695275	1.884500	199997.471609	5.260000
798.000000	79.795197	1.884186	199921.895686	5.260000
799.000000	79.895269	1.884291	199947.087660	5.260000
800.000000	79.995243	1.884082	199896.703711	5.280000
801.000000	80.095264	1.884500	199997.471609	5.300000
802.000000	80.195435	1.884186	199921.895686	5.320000
803.000000	80.295434	1.884813	200073.047533	5.320000
804.000000	80.395258	1.884918	200098.239508	5.320000
805.000000	80.495233	1.883663	199795.935813	5.330000
806.000000	80.595235	1.884709	200047.855558	5.330000
807.000000	80.695217	1.885231	200173.815431	5.330000
808.000000	80.795225	1.884291	199947.087660	5.330000
809.000000	80.895161	1.884291	199947.087660	5.330000
810.000000	80.995215	1.885022	200123.431482	5.340000
811.000000	81.095196	1.884186	199921.895686	5.340000
812.000000	81.195172	1.883977	199871.511737	5.340000
813.000000	81.295139	1.883872	199846.319762	5.340000
814.000000	81.395157	1.884500	199997.471609	5.340000
815.000000	81.495125	1.884395	199972.279635	5.360000
816.000000	81.595183	1.884082	199896.703711	5.370000
817.000000	81.695172	1.884604	200022.663584	5.390000
818.000000	81.795135	1.883977	199871.511737	5.410000
819.000000	81.895144	1.883768	199821.127788	5.410000
820.000000	81.995066	1.883872	199846.319762	5.420000
821.000000	82.095155	1.884500	199997.471609	5.420000
822.000000	82.195073	1.884186	199921.895686	5.420000
823.000000	82.295138	1.883559	199770.743839	5.420000
824.000000	82.395055	1.883768	199821.127788	5.430000
825.000000	82.495059	1.884291	199947.087660	5.430000
826.000000	82.595048	1.883872	199846.319762	5.430000
827.000000	82.695098	1.883977	199871.511737	5.430000
828.000000	82.795099	1.883872	199846.319762	5.430000
829.000000	82.895064	1.883768	199821.127788	5.430000
830.000000	82.995058	1.884395	199972.279635	5.430000
831.000000	83.095092	1.884082	199896.703711	5.430000
832.000000	83.195031	1.884186	199921.895686	5.430000
833.000000	83.295055	1.883977	199871.511737	5.430000
834.000000	83.395057	1.884082	199896.703711	5.430000
835.000000	83.495194	1.884082	199896.703711	5.430000
836.000000	83.595059	1.884082	199896.703711	5.430000
837.000000	83.695088	1.884500	199997.471609	5.430000
838.000000	83.795037	1.884500	199997.471609	5.430000
839.000000	83.895038	1.884395	199972.279635	5.430000
840.000000	83.995030	1.883768	199821.127788	5.430000
841.000000	84.095015	1.883454	199745.551864	5.430000
842.000000	84.194995	1.883977	199871.511737	5.430000
843.000000	84.294947	1.883768	199821.127788	5.430000
844.000000	84.394925	1.884082	199896.703711	5.430000
845.000000	84.494973	1.883663	199795.935813	5.430000
846.000000	84.595005	1.884291	199947.087660	5.430000
847.000000	84.694974	1.883663	199795.935813	5.430000
848.000000	84.794962	1.883768	199821.127788	5.430000
849.000000	84.894995	1.884291	199947.087660	5.430000
850.000000	84.994964	1.883977	199871.511737	5.430000
851.000000	85.094971	1.883350	199720.359889	5.430000
852.000000	85.194921	1.883872	199846.319762	5.430000
853.000000	85.294913	1.883977	199871.511737	5.430000
854.000000	85.394940	1.883768	199821.127788	5.430000
855.000000	85.494938	1.883872	199846.319762	5.430000
856.000000	85.594935	1.883872	199846.319762	5.430000
857.000000	85.694928	1.883350	199720.359889	5.430000
858.000000	85.794915	1.883036	199644.783966	5.430000
859.000000	85.894904	1.883977	199871.511737	5.430000
860.000000	85.994911	1.884082	199896.703711	5.430000
861.000000	86.094870	1.883872	199846.319762	5.430000
862.000000	86.194866	1.884186	199921.895686	5.430000
863.000000	86.294866	1.883559	199770.743839	5.430000
864.000000	86.394832	1.884395	199972.279635	5.430000
865.000000	86.494805	1.883454	199745.551864	5.430000
866.000000	86.594899	1.883977	199871.511737	5.430000
867.000000	86.694862	1.883559	199770.743839	5.430000
868.000000	86.794855	1.882932	199619.591991	5.430000
869.000000	86.895003	1.883141	199669.975940	5.430000
870.000000	86.994838	1.883977	199871.511737	5.430000
871.000000	87.094801	1.883454	199745.551864	5.430000
872.000000	87.194902	1.883768	199821.127788	5.430000
873.000000	87.294868	1.883350	199720.359889	5.430000
874.000000	87.394987	1.882932	199619.591991	5.430000
875.000000	87.494796	1.883245	199695.167915	5.430000
876.000000	87.594841	1.883559	199770.743839	5.430000
877.000000	87.694778	1.883454	199745.551864	5.430000
878.000000	87.794942	1.883350	199720.359889	5.430000
879.000000	87.894777	1.884500	199997.471609	5.440000
880.000000	87.994851	1.883663	199795.935813	5.440000
881.000000	88.094968	1.882932	199619.591991	5.440000
882.000000	88.194875	1.883559	199770.743839	5.440000
883.000000	88.294760	1.883559	199770.743839	5.440000
884.000000	88.394749	1.883663	199795.935813	5.440000
885.000000	88.494840	1.883036	199644.783966	5.440000
886.000000	88.594793	1.883663	199795.935813	5.440000
887.000000	88.694804	1.883768	199821.127788	5.440000
888.000000	88.794782	1.883350	199720.359889	5.440000
889.000000	88.894733	1.883350	199720.359889	5.440000
890.000000	88.994847	1.883245	199695.167915	5.440000
891.000000	89.094754	1.882932	199619.591991	5.440000
892.000000	89.194716	1.883245	199695.167915	5.440000
893.000000	89.294883	1.884186	199921.895686	5.440000
894.000000	89.394856	1.883036	199644.783966	5.440000
895.000000	89.494871	1.883245	199695.167915	5.440000
896.000000	89.594862	1.883350	199720.359889	5.440000
897.000000	89.694796	1.883559	199770.743839	5.440000
898.000000	89.794874	1.883350	199720.359889	5.440000
899.000000	89.894666	1.883768	199821.127788	5.440000
900.000000	89.994645	1.883350	199720.359889	5.440000
901.000000	90.094597	1.883350	199720.359889	5.440000
902.000000	90.194748	1.883454	199745.551864	5.440000
903.000000	90.294701	1.883663	199795.935813	5.440000
904.000000	90.394695	1.883141	199669.975940	5.440000
905.000000	90.494629	1.883350	199720.359889	5.440000
906.000000	90.594520	1.883454	199745.551864	5.440000
907.000000	90.694506	1.883454	199745.551864	5.440000
908.000000	90.794501	1.883454	199745.551864	5.440000
909.000000	90.894516	1.883036	199644.783966	5.450000
910.000000	90.994527	1.883036	199644.783966	5.450000
911.000000	91.094484	1.882827	199594.400017	5.450000
912.000000	91.194545	1.883141	199669.975940	5.450000
913.000000	91.294486	1.883559	199770.743839	5.450000
914.000000	91.394507	1.882514	199518.824093	5.450000
915.000000	91.494529	1.883036	199644.783966	5.450000
916.000000	91.594486	1.883036	199644.783966	5.450000
917.000000	91.694505	1.882827	199594.400017	5.450000
918.000000	91.794523	1.883559	199770.743839	5.450000
919.000000	91.894451	1.883454	199745.551864	5.450000
920.000000	91.994526	1.883245	199695.167915	5.450000
921.000000	92.094498	1.883559	199770.743839	5.450000
922.000000	92.194478	1.882827	199594.400017	5.450000
923.000000	92.294479	1.882932	199619.591991	5.450000
924.000000	92.394454	1.882932	199619.591991	5.460000
925.000000	92.494502	1.883141	199669.975940	5.490000
926.000000	92.594435	1.882723	199569.208042	5.500000
927.000000	92.694422	1.882723	199569.208042	5.520000
928.000000	92.794455	1.882514	199518.824093	5.540000
929.000000	92.894393	1.883454	199745.551864	5.540000
930.000000	92.994413	1.883036	199644.783966	5.540000
931.000000	93.094382	1.883141	199669.975940	5.550000
932.000000	93.194399	1.882618	199544.016068	5.550000
933.000000	93.294415	1.882618	199544.016068	5.550000
934.000000	93.394372	1.882723	199569.208042	5.550000
935.000000	93.494381	1.882827	199594.400017	5.550000
936.000000	93.594341	1.883141	199669.975940	5.550000
937.000000	93.694354	1.883245	199695.167915	5.560000
938.000000	93.794399	1.883559	199770.743839	5.560000
939.000000	93.894437	1.883350	199720.359889	5.560000
940.000000	93.994431	1.883350	199720.359889	5.560000
941.000000	94.094337	1.882827	199594.400017	5.560000
942.000000	94.194311	1.883663	199795.935813	5.560000
943.000000	94.294348	1.883872	199846.319762	5.560000
944.000000	94.394609	1.883350	199720.359889	5.560000
945.000000	94.494354	1.883663	199795.935813	5.560000
946.000000	94.594334	1.882723	199569.208042	5.560000
947.000000	94.694332	1.883141	199669.975940	5.560000
948.000000	94.794339	1.883350	199720.359889	5.560000
949.000000	94.894354	1.883141	199669.975940	5.560000
950.000000	94.994319	1.883454	199745.551864	5.560000
951.000000	95.094258	1.883768	199821.127788	5.560000
952.000000	95.194281	1.883559	199770.743839	5.560000
953.000000	95.294349	1.883245	199695.167915	5.560000
954.000000	95.394305	1.882932	199619.591991	5.560000
955.000000	95.494261	1.883454	199745.551864	5.560000
956.000000	95.594265	1.883872	199846.319762	5.560000
957.000000	95.694283	1.883350	199720.359889	5.560000
958.000000	95.794321	1.883350	199720.359889	5.560000
959.000000	95.894325	1.882932	199619.591991	5.560000
960.000000	95.994296	1.882827	199594.400017	5.560000
961.000000	96.094284	1.883245	199695.167915	5.560000
962.000000	96.194345	1.883036	199644.783966	5.560000
963.000000	96.294345	1.883454	199745.551864	5.560000
964.000000	96.394187	1.882618	199544.016068	5.570000
965.000000	96.494263	1.882827	199594.400017	5.570000
966.000000	96.594293	1.882932	199619.591991	5.600000
967.000000	96.694213	1.883036	199644.783966	5.600000
968.000000	96.794256	1.882827	199594.400017	5.600000
969.000000	96.894264	1.883977	199871.511737	5.600000
970.000000	96.994230	1.883350	199720.359889	5.600000
971.000000	97.094270	1.883350	199720.359889	5.600000
972.000000	97.194177	1.882827	199594.400017	5.600000
973.000000	97.294231	1.882723	199569.208042	5.600000
974.000000	97.394249	1.883245	199695.167915	5.600000
975.000000	97.494218	1.882618	199544.016068	5.600000
976.000000	97.594213	1.882618	199544.016068	5.600000
977.000000	97.694203	1.882932	199619.591991	5.600000
978.000000	97.794199	1.882409	199493.632119	5.600000
979.000000	97.894219	1.883036	199644.783966	5.600000
980.000000	97.994190	1.883977	199871.511737	5.600000
981.000000	98.094185	1.883141	199669.975940	5.600000
982.000000	98.194246	1.882723	199569.208042	5.600000
983.000000	98.294130	1.882932	199619.591991	5.600000
984.000000	98.394098	1.882618	199544.016068	5.610000
985.000000	98.494155	1.883559	199770.743839	5.610000
986.000000	98.594137	1.883141	199669.975940	5.610000
987.000000	98.694142	1.883245	199695.167915	5.610000
988.000000	98.794156	1.882514	199518.824093	5.610000
989.000000	98.894136	1.883036	199644.783966	5.610000
990.000000	98.994113	1.883036	199644.783966	5.610000
991.000000	99.094071	1.883559	199770.743839	5.610000
992.000000	99.194099	1.882618	199544.016068	5.610000
993.000000	99.294109	1.883141	199669.975940	5.610000
994.000000	99.394108	1.882723	199569.208042	5.610000
995.000000	99.494080	1.883245	199695.167915	5.610000
996.000000	99.594033	1.883350	199720.359889	5.610000
997.000000	99.694092	1.883141	199669.975940	5.610000
998.000000	99.794093	1.883141	199669.975940	5.610000
999.000000	99.894045	1.883768	199821.127788	5.610000
1000.000000	99.994058	1.883141	199669.975940	5.610000
1001.000000	100.094082	1.883036	199644.783966	5.610000
1002.000000	100.193996	1.882827	199594.400017	5.610000
1003.000000	100.294038	1.883141	199669.975940	5.610000
1004.000000	100.394116	1.882514	199518.824093	5.610000
1005.000000	100.494044	1.882305	199468.440144	5.610000
1006.000000	100.594032	1.884082	199896.703711	5.610000
1007.000000	100.694097	1.882827	199594.400017	5.610000
1008.000000	100.794039	1.882618	199544.016068	5.610000
1009.000000	100.893974	1.883141	199669.975940	5.610000
1010.000000	100.993933	1.882932	199619.591991	5.610000
1011.000000	101.093957	1.883141	199669.975940	5.610000
1012.000000	101.193966	1.882932	199619.591991	5.610000
1013.000000	101.293980	1.882723	199569.208042	5.610000
1014.000000	101.393991	1.882723	199569.208042	5.610000
1015.000000	101.493972	1.882932	199619.591991	5.610000
1016.000000	101.593997	1.882723	199569.208042	5.610000
1017.000000	101.693996	1.883768	199821.127788	5.610000
1018.000000	101.793918	1.883036	199644.783966	5.610000
1019.000000	101.893950	1.883559	199770.743839	5.610000
1020.000000	101.993947	1.882409	199493.632119	5.610000
1021.000000	102.093944	1.882932	199619.591991	5.610000
1022.000000	102.193879	1.883559	199770.743839	5.610000
1023.000000	102.293950	1.883559	199770.743839	5.610000
1024.000000	102.393909	1.882514	199518.824093	5.610000
1025.000000	102.493912	1.882827	199594.400017	5.630000
1026.000000	102.593935	1.882723	199569.208042	5.640000
1027.000000	102.693880	1.882514	199518.824093	5.660000
1028.000000	102.793927	1.883141	199669.975940	5.660000
1029.000000	102.893906	1.881991	199392.864221	5.670000
1030.000000	102.993897	1.883768	199821.127788	5.670000
1031.000000	103.093866	1.883036	199644.783966	5.670000
1032.000000	103.193824	1.882096	199418.056195	5.670000
1033.000000	103.293868	1.882618	199544.016068	5.680000
1034.000000	103.393848	1.882932	199619.591991	5.680000
1035.000000	103.493854	1.882096	199418.056195	5.680000
1036.000000	103.593834	1.883350	199720.359889	5.680000
1037.000000	103.693873	1.882932	199619.591991	5.680000
1038.000000	103.793853	1.883141	199669.975940	5.680000
1039.000000	103.893846	1.882932	199619.591991	5.680000
1040.000000	103.993808	1.883036	199644.783966	5.710000
1041.000000	104.093906	1.882932	199619.591991	5.710000
1042.000000	104.193820	1.882409	199493.632119	5.720000
1043.000000	104.293795	1.882827	199594.400017	5.720000
1044.000000	104.393761	1.881573	199292.096322	5.720000
1045.000000	104.493702	1.882618	199544.016068	5.720000
1046.000000	104.593707	1.883036	199644.783966	5.720000
1047.000000	104.693790	1.882723	199569.208042	5.720000
1048.000000	104.793794	1.882932	199619.591991	5.720000
1049.000000	104.893798	1.882932	199619.591991	5.720000
1050.000000	104.993718	1.882618	199544.016068	5.720000
1051.000000	105.093703	1.882409	199493.632119	5.720000
1052.000000	105.193681	1.883036	199644.783966	5.720000
1053.000000	105.293725	1.882514	199518.824093	5.720000
1054.000000	105.393734	1.882305	199468.440144	5.730000
1055.000000	105.493761	1.882723	199569.208042	5.730000
1056.000000	105.593717	1.882409	199493.632119	5.730000
1057.000000	105.693729	1.882514	199518.824093	5.730000
1058.000000	105.793720	1.881782	199342.480271	5.730000
1059.000000	105.893742	1.881991	199392.864221	5.730000
1060.000000	105.993706	1.882200	199443.248170	5.730000
1061.000000	106.093757	1.882096	199418.056195	5.730000
1062.000000	106.193723	1.882096	199418.056195	5.730000
1063.000000	106.293703	1.881782	199342.480271	5.730000
1064.000000	106.393655	1.882514	199518.824093	5.730000
1065.000000	106.493685	1.881573	199292.096322	5.730000
1066.000000	106.593682	1.881991	199392.864221	5.730000
1067.000000	106.693665	1.882200	199443.248170	5.730000
1068.000000	106.793682	1.882409	199493.632119	5.730000
1069.000000	106.893671	1.881887	199367.672246	5.730000
1070.000000	106.993632	1.882305	199468.440144	5.730000
1071.000000	107.093664	1.881887	199367.672246	5.730000
1072.000000	107.193585	1.882409	199493.632119	5.730000
1073.000000	107.293583	1.882305	199468.440144	5.730000
1074.000000	107.393650	1.881573	199292.096322	5.730000
1075.000000	107.493609	1.881887	199367.672246	5.730000
1076.000000	107.593642	1.881991	199392.864221	5.730000
1077.000000	107.693609	1.881782	199342.480271	5.730000
1078.000000	107.793626	1.881469	199266.904348	5.730000
1079.000000	107.893616	1.882305	199468.440144	5.730000
1080.000000	107.993573	1.881887	199367.672246	5.730000
1081.000000	108.093602	1.881573	199292.096322	5.730000
1082.000000	108.193632	1.882514	199518.824093	5.730000
1083.000000	108.293591	1.881887	199367.672246	5.730000
1084.000000	108.393592	1.881573	199292.096322	5.730000
1085.000000	108.493555	1.882409	199493.632119	5.730000
1086.000000	108.593518	1.881364	199241.712373	5.730000
1087.000000	108.693490	1.882305	199468.440144	5.730000
1088.000000	108.793494	1.881991	199392.864221	5.730000
1089.000000	108.893535	1.881991	199392.864221	5.730000
1090.000000	108.993533	1.882305	199468.440144	5.730000
1091.000000	109.093524	1.882096	199418.056195	5.730000
1092.000000	109.193474	1.882096	199418.056195	5.730000
1093.000000	109.293449	1.882096	199418.056195	5.730000
1094.000000	109.393429	1.881155	199191.328424	5.730000
1095.000000	109.493528	1.881991	199392.864221	5.730000
1096.000000	109.593501	1.881469	199266.904348	5.730000
1097.000000	109.693486	1.882305	199468.440144	5.730000
1098.000000	109.793465	1.881678	199317.288297	5.730000
1099.000000	109.893464	1.882096	199418.056195	5.730000
1100.000000	109.993494	1.881678	199317.288297	5.730000
1101.000000	110.093403	1.881782	199342.480271	5.730000
1102.000000	110.193511	1.882409	199493.632119	5.730000
1103.000000	110.293467	1.882305	199468.440144	5.730000
1104.000000	110.393372	1.881573	199292.096322	5.730000
1105.000000	110.493479	1.881887	199367.672246	5.730000
1106.000000	110.593448	1.881782	199342.480271	5.730000
1107.000000	110.693450	1.881887	199367.672246	5.730000
1108.000000	110.793391	1.881991	199392.864221	5.730000
1109.000000	110.893437	1.882200	199443.248170	5.730000
1110.000000	110.993355	1.881782	199342.480271	5.730000
1111.000000	111.093355	1.881678	199317.288297	5.730000
1112.000000	111.193456	1.881782	199342.480271	5.730000
1113.000000	111.293393	1.881782	199342.480271	5.730000
1114.000000	111.393384	1.881678	199317.288297	5.730000
1115.000000	111.493290	1.881364	199241.712373	5.730000
1116.000000	111.593291	1.882200	199443.248170	5.730000
1117.000000	111.693330	1.881469	199266.904348	5.760000
1118.000000	111.793368	1.881573	199292.096322	5.760000
1119.000000	111.893377	1.881155	199191.328424	5.760000
1120.000000	111.993377	1.881469	199266.904348	5.760000
1121.000000	112.093280	1.881469	199266.904348	5.760000
1122.000000	112.193445	1.882096	199418.056195	5.760000
1123.000000	112.293332	1.881678	199317.288297	5.760000
1124.000000	112.393265	1.881260	199216.520399	5.760000
1125.000000	112.493347	1.881364	199241.712373	5.760000
1126.000000	112.593303	1.881469	199266.904348	5.770000
1127.000000	112.693254	1.882305	199468.440144	5.770000
1128.000000	112.793217	1.881469	199266.904348	5.770000
1129.000000	112.893213	1.882200	199443.248170	5.770000
1130.000000	112.993353	1.881991	199392.864221	5.770000
1131.000000	113.093332	1.881155	199191.328424	5.770000
1132.000000	113.193329	1.881887	199367.672246	5.770000
1133.000000	113.293286	1.881887	199367.672246	5.770000
1134.000000	113.393294	1.881678	199317.288297	5.770000
1135.000000	113.493276	1.881051	199166.136450	5.770000
1136.000000	113.593209	1.881155	199191.328424	5.770000
1137.000000	113.693212	1.882096	199418.056195	5.770000
1138.000000	113.793253	1.881364	199241.712373	5.770000
1139.000000	113.893171	1.881364	199241.712373	5.770000
1140.000000	113.993252	1.882305	199468.440144	5.770000
1141.000000	114.093211	1.881678	199317.288297	5.770000
1142.000000	114.193207	1.881678	199317.288297	5.770000
1143.000000	114.293237	1.881573	199292.096322	5.770000
1144.000000	114.393127	1.881469	199266.904348	5.770000
1145.000000	114.493225	1.881678	199317.288297	5.770000
1146.000000	114.593220	1.881051	199166.136450	5.770000
1147.000000	114.693194	1.881260	199216.520399	5.770000
1148.000000	114.793210	1.881991	199392.864221	5.770000
1149.000000	114.893099	1.881469	199266.904348	5.770000
1150.000000	114.993112	1.881260	199216.520399	5.770000
1151.000000	115.093183	1.881573	199292.096322	5.770000
1152.000000	115.193162	1.881155	199191.328424	5.770000
1153.000000	115.293173	1.881678	199317.288297	5.770000
1154.000000	115.393181	1.881782	199342.480271	5.770000
1155.000000	115.493169	1.881051	199166.136450	5.770000
1156.000000	115.593131	1.882096	199418.056195	5.770000
1157.000000	115.693134	1.880946	199140.944475	5.770000
1158.000000	115.793091	1.881573	199292.096322	5.770000
1159.000000	115.893111	1.881782	199342.480271	5.770000
1160.000000	115.993114	1.881155	199191.328424	5.770000
1161.000000	116.093128	1.881782	199342.480271	5.770000
1162.000000	116.193077	1.882096	199418.056195	5.770000
1163.000000	116.293095	1.881364	199241.712373	5.800000
1164.000000	116.393074	1.881155	199191.328424	5.810000
1165.000000	116.493069	1.881155	199191.328424	5.830000
1166.000000	116.593090	1.881469	199266.904348	5.840000
1167.000000	116.693048	1.881364	199241.712373	5.840000
1168.000000	116.793070	1.880946	199140.944475	5.840000
1169.000000	116.893068	1.880946	199140.944475	5.850000
1170.000000	116.993023	1.881260	199216.520399	5.850000
1171.000000	117.093052	1.881991	199392.864221	5.850000
1172.000000	117.193058	1.881469	199266.904348	5.850000
1173.000000	117.293059	1.881260	199216.520399	5.850000
1174.000000	117.393023	1.881364	199241.712373	5.850000
1175.000000	117.493043	1.881782	199342.480271	5.850000
1176.000000	117.593019	1.881364	199241.712373	5.850000
1177.000000	117.693014	1.881469	199266.904348	5.850000
1178.000000	117.792960	1.881260	199216.520399	5.850000
1179.000000	117.893024	1.880946	199140.944475	5.850000
1180.000000	117.992965	1.881155	199191.328424	5.850000
1181.000000	118.093005	1.881678	199317.288297	5.850000
1182.000000	118.192926	1.881573	199292.096322	5.860000
1183.000000	118.292968	1.881573	199292.096322	5.860000
1184.000000	118.392986	1.881260	199216.520399	5.860000
1185.000000	118.492986	1.881051	199166.136450	5.860000
1186.000000	118.592946	1.881155	199191.328424	5.860000
1187.000000	118.692944	1.881887	199367.672246	5.860000
1188.000000	118.792886	1.881573	199292.096322	5.860000
1189.000000	118.892918	1.881469	199266.904348	5.860000
1190.000000	118.992854	1.881678	199317.288297	5.880000
1191.000000	119.092909	1.880528	199040.176577	5.890000
1192.000000	119.192967	1.881051	199166.136450	5.910000
1193.000000	119.292924	1.881155	199191.328424	5.930000
1194.000000	119.392910	1.881678	199317.288297	5.940000
1195.000000	119.492923	1.881260	199216.520399	5.940000
1196.000000	119.592918	1.881887	199367.672246	5.940000
1197.000000	119.692890	1.880946	199140.944475	5.940000
1198.000000	119.792833	1.881782	199342.480271	5.950000
1199.000000	119.892879	1.880737	199090.560526	5.950000
1200.000000	119.992890	1.881782	199342.480271	5.950000
1201.000000	120.092878	1.881678	199317.288297	5.950000
1202.000000	120.192886	1.881573	199292.096322	5.950000
1203.000000	120.292858	1.881364	199241.712373	5.950000
1204.000000	120.392896	1.880632	199065.368552	5.950000
1205.000000	120.492808	1.881051	199166.136450	5.950000
1206.000000	120.592832	1.880423	199014.984602	5.950000
1207.000000	120.692775	1.881260	199216.520399	5.950000
1208.000000	120.792757	1.881051	199166.136450	5.950000
1209.000000	120.892770	1.880737	199090.560526	5.950000
1210.000000	120.992799	1.881469	199266.904348	5.950000
1211.000000	121.092719	1.882096	199418.056195	5.950000
1212.000000	121.192816	1.881573	199292.096322	5.950000
1213.000000	121.292801	1.881469	199266.904348	5.950000
1214.000000	121.392782	1.880632	199065.368552	5.950000
1215.000000	121.492811	1.881260	199216.520399	5.960000
1216.000000	121.592738	1.881469	199266.904348	5.960000
1217.000000	121.692788	1.881991	199392.864221	5.960000
1218.000000	121.792762	1.880946	199140.944475	5.960000
1219.000000	121.892743	1.881364	199241.712373	5.960000
1220.000000	121.992732	1.880946	199140.944475	5.960000
1221.000000	122.092744	1.881155	199191.328424	5.960000
1222.000000	122.192715	1.881469	199266.904348	5.960000
1223.000000	122.292709	1.881260	199216.520399	5.960000
1224.000000	122.392678	1.881051	199166.136450	5.960000
1225.000000	122.492722	1.881051	199166.136450	5.960000
1226.000000	122.592732	1.881991	199392.864221	5.960000
1227.000000	122.692645	1.881051	199166.136450	5.960000
1228.000000	122.792655	1.880737	199090.560526	5.960000
1229.000000	122.892657	1.881573	199292.096322	5.960000
1230.000000	122.992692	1.881678	199317.288297	5.960000
1231.000000	123.092640	1.881051	199166.136450	5.960000
1232.000000	123.192667	1.881991	199392.864221	5.960000
1233.000000	123.292630	1.880946	199140.944475	5.960000
1234.000000	123.392648	1.881051	199166.136450	5.960000
1235.000000	123.492689	1.882096	199418.056195	5.960000
1236.000000	123.592620	1.881364	199241.712373	5.960000
1237.000000	123.692639	1.881678	199317.288297	5.960000
1238.000000	123.792666	1.881364	199241.712373	5.960000
1239.000000	123.892647	1.881364	199241.712373	5.960000
1240.000000	123.992623	1.881364	199241.712373	5.960000
1241.000000	124.092640	1.881678	199317.288297	5.960000
1242.000000	124.192557	1.881260	199216.520399	5.960000
1243.000000	124.292618	1.880842	199115.752501	5.960000
1244.000000	124.392547	1.881364	199241.712373	5.960000
1245.000000	124.492548	1.881260	199216.520399	5.960000
1246.000000	124.592556	1.881678	199317.288297	5.960000
1247.000000	124.692617	1.880842	199115.752501	5.960000
1248.000000	124.792556	1.881155	199191.328424	5.960000
1249.000000	124.892553	1.880737	199090.560526	5.960000
1250.000000	124.992496	1.880946	199140.944475	5.960000
1251.000000	125.092557	1.880946	199140.944475	5.960000
1252.000000	125.192522	1.881364	199241.712373	5.960000
1253.000000	125.292546	1.881364	199241.712373	5.960000
1254.000000	125.392574	1.881260	199216.520399	5.960000
1255.000000	125.492454	1.882096	199418.056195	5.960000
1256.000000	125.592495	1.880528	199040.176577	5.960000
1257.000000	125.692413	1.881573	199292.096322	5.960000
1258.000000	125.792454	1.881364	199241.712373	5.960000
1259.000000	125.892439	1.880632	199065.368552	5.990000
1260.000000	125.992394	1.881155	199191.328424	6.010000
1261.000000	126.092437	1.881991	199392.864221	6.030000
1262.000000	126.192632	1.881364	199241.712373	6.030000
1263.000000	126.292482	1.881678	199317.288297	6.040000
1264.000000	126.392500	1.880423	199014.984602	6.040000
1265.000000	126.492511	1.880842	199115.752501	6.040000
1266.000000	126.592434	1.880842	199115.752501	6.040000
1267.000000	126.692487	1.880632	199065.368552	6.060000
1268.000000	126.792474	1.880632	199065.368552	6.070000
1269.000000	126.892399	1.880946	199140.944475	6.070000
1270.000000	126.992459	1.880946	199140.944475	6.070000
1271.000000	127.092457	1.880737	199090.560526	6.080000
1272.000000	127.192397	1.881364	199241.712373	6.080000
1273.000000	127.292414	1.881678	199317.288297	6.080000
1274.000000	127.392402	1.880632	199065.368552	6.080000
1275.000000	127.492397	1.880737	199090.560526	6.080000
1276.000000	127.592392	1.881155	199191.328424	6.080000
1277.000000	127.692400	1.881887	199367.672246	6.080000
1278.000000	127.792394	1.880528	199040.176577	6.080000
1279.000000	127.892321	1.881051	199166.136450	6.080000
1280.000000	127.992366	1.880737	199090.560526	6.080000
1281.000000	128.092373	1.880423	199014.984602	6.080000
1282.000000	128.192349	1.880423	199014.984602	6.080000
1283.000000	128.292343	1.880946	199140.944475	6.080000
1284.000000	128.392372	1.880946	199140.944475	6.080000
1285.000000	128.492334	1.880528	199040.176577	6.080000
1286.000000	128.592358	1.881573	199292.096322	6.080000
1287.000000	128.692322	1.881678	199317.288297	6.090000
1288.000000	128.792286	1.880528	199040.176577	6.090000
1289.000000	128.892289	1.880632	199065.368552	6.090000
1290.000000	128.992275	1.880423	199014.984602	6.090000
1291.000000	129.092273	1.880528	199040.176577	6.090000
1292.000000	129.192241	1.880214	198964.600653	6.090000
1293.000000	129.292324	1.880946	199140.944475	6.090000
1294.000000	129.392308	1.881051	199166.136450	6.090000
1295.000000	129.492297	1.881260	199216.520399	6.090000
1296.000000	129.592237	1.880737	199090.560526	6.090000
1297.000000	129.692223	1.880632	199065.368552	6.090000
1298.000000	129.792278	1.880946	199140.944475	6.090000
1299.000000	129.892245	1.880423	199014.984602	6.090000
1300.000000	129.992296	1.880632	199065.368552	6.090000
1301.000000	130.092247	1.880842	199115.752501	6.090000
1302.000000	130.192143	1.881155	199191.328424	6.090000
1303.000000	130.292159	1.881364	199241.712373	6.090000
1304.000000	130.392131	1.880528	199040.176577	6.090000
1305.000000	130.492231	1.880423	199014.984602	6.090000
1306.000000	130.592216	1.881260	199216.520399	6.090000
1307.000000	130.692154	1.880737	199090.560526	6.090000
1308.000000	130.792237	1.880528	199040.176577	6.090000
1309.000000	130.892185	1.881155	199191.328424	6.090000
1310.000000	130.992196	1.880737	199090.560526	6.090000
1311.000000	131.092199	1.880528	199040.176577	6.090000
1312.000000	131.192124	1.880528	199040.176577	6.090000
1313.000000	131.292183	1.881051	199166.136450	6.090000
1314.000000	131.392145	1.880214	198964.600653	6.090000
1315.000000	131.492225	1.880946	199140.944475	6.090000
1316.000000	131.592117	1.880319	198989.792628	6.090000
1317.000000	131.692102	1.880423	199014.984602	6.090000
1318.000000	131.792175	1.881051	199166.136450	6.090000
1319.000000	131.892062	1.880214	198964.600653	6.090000
1320.000000	131.992145	1.880632	199065.368552	6.090000
1321.000000	132.092130	1.880319	198989.792628	6.090000
1322.000000	132.192019	1.880528	199040.176577	6.090000
1323.000000	132.292130	1.881155	199191.328424	6.090000
1324.000000	132.392070	1.881051	199166.136450	6.090000
1325.000000	132.492047	1.880319	198989.792628	6.090000
1326.000000	132.592035	1.880005	198914.216704	6.090000
1327.000000	132.692130	1.880110	198939.408679	6.090000
1328.000000	132.792040	1.880737	199090.560526	6.090000
1329.000000	132.892076	1.881051	199166.136450	6.090000
1330.000000	132.992093	1.880632	199065.368552	6.090000
1331.000000	133.092064	1.880842	199115.752501	6.090000
1332.000000	133.191969	1.879796	198863.832755	6.090000
1333.000000	133.292067	1.880005	198914.216704	6.090000
1334.000000	133.392084	1.880214	198964.600653	6.090000
1335.000000	133.492044	1.880423	199014.984602	6.090000
1336.000000	133.592043	1.880737	199090.560526	6.090000
1337.000000	133.691988	1.880319	198989.792628	6.090000
1338.000000	133.792036	1.880005	198914.216704	6.090000
1339.000000	133.892046	1.880528	199040.176577	6.090000
1340.000000	133.992020	1.880319	198989.792628	6.090000
1341.000000	134.091996	1.880214	198964.600653	6.090000
1342.000000	134.192081	1.880528	199040.176577	6.090000
1343.000000	134.292027	1.880005	198914.216704	6.090000
1344.000000	134.391987	1.880005	198914.216704	6.090000
1345.000000	134.491959	1.880214	198964.600653	6.090000
1346.000000	134.591975	1.879901	198889.024730	6.090000
1347.000000	134.691998	1.880632	199065.368552	6.090000
1348.000000	134.791958	1.880005	198914.216704	6.090000
1349.000000	134.891988	1.880214	198964.600653	6.090000
1350.000000	134.991926	1.879692	198838.640781	6.090000
1351.000000	135.091916	1.879901	198889.024730	6.090000
1352.000000	135.192075	1.880005	198914.216704	6.090000
1353.000000	135.291909	1.880005	198914.216704	6.090000
1354.000000	135.391932	1.879692	198838.640781	6.090000
1355.000000	135.491938	1.879065	198687.488934	6.090000
1356.000000	135.591904	1.880423	199014.984602	6.090000
1357.000000	135.691857	1.880110	198939.408679	6.090000
1358.000000	135.791941	1.880110	198939.408679	6.090000
1359.000000	135.891897	1.879901	198889.024730	6.090000
1360.000000	135.991908	1.879901	198889.024730	6.090000
1361.000000	136.091854	1.880737	199090.560526	6.100000
1362.000000	136.191853	1.880528	199040.176577	6.100000
1363.000000	136.291902	1.879901	198889.024730	6.100000
1364.000000	136.391819	1.880214	198964.600653	6.100000
1365.000000	136.491898	1.880319	198989.792628	6.100000
1366.000000	136.591914	1.880319	198989.792628	6.100000
1367.000000	136.691872	1.879901	198889.024730	6.100000
1368.000000	136.791887	1.880005	198914.216704	6.100000
1369.000000	136.891833	1.880737	199090.560526	6.100000
1370.000000	136.991828	1.879587	198813.448806	6.100000
1371.000000	137.091859	1.879901	198889.024730	6.100000
1372.000000	137.191841	1.880005	198914.216704	6.100000
1373.000000	137.291822	1.880005	198914.216704	6.100000
1374.000000	137.391850	1.880528	199040.176577	6.100000
1375.000000	137.491798	1.879483	198788.256832	6.100000
1376.000000	137.591789	1.879169	198712.680908	6.100000
1377.000000	137.691771	1.879378	198763.064857	6.100000
1378.000000	137.791815	1.879587	198813.448806	6.100000
1379.000000	137.891772	1.879483	198788.256832	6.100000
1380.000000	137.991807	1.878960	198662.296959	6.110000
1381.000000	138.091794	1.879901	198889.024730	6.110000
1382.000000	138.191780	1.879901	198889.024730	6.110000
1383.000000	138.291781	1.880005	198914.216704	6.110000
1384.000000	138.391760	1.879169	198712.680908	6.110000
1385.000000	138.491750	1.880214	198964.600653	6.110000
1386.000000	138.591684	1.879692	198838.640781	6.110000
1387.000000	138.691777	1.879692	198838.640781	6.110000
1388.000000	138.791682	1.879692	198838.640781	6.110000
1389.000000	138.891708	1.879901	198889.024730	6.110000
1390.000000	138.991739	1.879901	198889.024730	6.110000
1391.000000	139.091671	1.879378	198763.064857	6.110000
1392.000000	139.191646	1.880005	198914.216704	6.110000
1393.000000	139.291683	1.879796	198863.832755	6.110000
1394.000000	139.391626	1.879274	198737.872883	6.110000
1395.000000	139.491599	1.879901	198889.024730	6.110000
1396.000000	139.591656	1.879692	198838.640781	6.110000
1397.000000	139.691627	1.879378	198763.064857	6.110000
1398.000000	139.791653	1.880319	198989.792628	6.110000
1399.000000	139.891608	1.879378	198763.064857	6.120000
1400.000000	139.991662	1.880632	199065.368552	6.120000
1401.000000	140.091637	1.879692	198838.640781	6.140000
1402.000000	140.191599	1.880319	198989.792628	6.150000
1403.000000	140.291609	1.880214	198964.600653	6.170000
1404.000000	140.391628	1.879692	198838.640781	6.190000
1405.000000	140.491639	1.879901	198889.024730	6.190000
1406.000000	140.591622	1.880005	198914.216704	6.200000
1407.000000	140.691623	1.879901	198889.024730	6.200000
1408.000000	140.791628	1.879483	198788.256832	6.200000
1409.000000	140.891564	1.880214	198964.600653	6.200000
1410.000000	140.991530	1.880214	198964.600653	6.200000
1411.000000	141.091611	1.879901	198889.024730	6.200000
1412.000000	141.191541	1.879587	198813.448806	6.200000
1413.000000	141.291531	1.879901	198889.024730	6.210000
1414.000000	141.391483	1.880005	198914.216704	6.210000
1415.000000	141.491527	1.880005	198914.216704	6.210000
1416.000000	141.591485	1.878647	198586.721035	6.210000
1417.000000	141.691569	1.879483	198788.256832	6.210000
1418.000000	141.791543	1.880110	198939.408679	6.210000
1419.000000	141.891530	1.879587	198813.448806	6.210000
1420.000000	141.991494	1.880005	198914.216704	6.210000
1421.000000	142.091518	1.880005	198914.216704	6.210000
1422.000000	142.191481	1.879692	198838.640781	6.240000
1423.000000	142.291447	1.879587	198813.448806	6.240000
1424.000000	142.391481	1.880214	198964.600653	6.240000
1425.000000	142.491472	1.879274	198737.872883	6.250000
1426.000000	142.591401	1.879483	198788.256832	6.250000
1427.000000	142.691447	1.879901	198889.024730	6.250000
1428.000000	142.791414	1.879483	198788.256832	6.250000
1429.000000	142.891443	1.879483	198788.256832	6.250000
1430.000000	142.991391	1.879274	198737.872883	6.250000
1431.000000	143.091374	1.879901	198889.024730	6.250000
1432.000000	143.191381	1.880214	198964.600653	6.250000
1433.000000	143.291389	1.879483	198788.256832	6.250000
1434.000000	143.391453	1.879378	198763.064857	6.250000
1435.000000	143.491368	1.880319	198989.792628	6.250000
1436.000000	143.591401	1.880214	198964.600653	6.250000
1437.000000	143.691404	1.879796	198863.832755	6.260000
1438.000000	143.791429	1.879274	198737.872883	6.260000
1439.000000	143.891455	1.879901	198889.024730	6.260000
1440.000000	143.991433	1.879587	198813.448806	6.260000
1441.000000	144.091473	1.879796	198863.832755	6.260000
1442.000000	144.191360	1.879483	198788.256832	6.260000
1443.000000	144.291422	1.880214	198964.600653	6.260000
1444.000000	144.391430	1.879065	198687.488934	6.260000
1445.000000	144.491391	1.880110	198939.408679	6.260000
1446.000000	144.591400	1.879483	198788.256832	6.260000
1447.000000	144.691305	1.880214	198964.600653	6.260000
1448.000000	144.791360	1.879901	198889.024730	6.260000
1449.000000	144.891367	1.879483	198788.256832	6.260000
1450.000000	144.991362	1.879796	198863.832755	6.260000
1451.000000	145.091348	1.878751	198611.913010	6.260000
1452.000000	145.191304	1.879483	198788.256832	6.260000
1453.000000	145.291359	1.879483	198788.256832	6.260000
1454.000000	145.391323	1.879901	198889.024730	6.260000
1455.000000	145.491318	1.879587	198813.448806	6.260000
1456.000000	145.591247	1.880214	198964.600653	6.260000
1457.000000	145.691272	1.879378	198763.064857	6.260000
1458.000000	145.791306	1.879796	198863.832755	6.260000
1459.000000	145.891326	1.879169	198712.680908	6.260000
1460.000000	145.991332	1.879274	198737.872883	6.260000
1461.000000	146.091353	1.879692	198838.640781	6.260000
1462.000000	146.191254	1.880110	198939.408679	6.260000
1463.000000	146.291319	1.879483	198788.256832	6.260000
1464.000000	146.391264	1.879587	198813.448806	6.260000
1465.000000	146.491282	1.879587	198813.448806	6.260000
1466.000000	146.591277	1.879901	198889.024730	6.260000
1467.000000	146.691274	1.879274	198737.872883	6.260000
1468.000000	146.791247	1.879587	198813.448806	6.260000
1469.000000	146.891185	1.879796	198863.832755	6.260000
1470.000000	146.991240	1.879378	198763.064857	6.260000
1471.000000	147.091234	1.879692	198838.640781	6.260000
1472.000000	147.191233	1.880214	198964.600653	6.260000
1473.000000	147.291233	1.879901	198889.024730	6.260000
1474.000000	147.391210	1.880005	198914.216704	6.260000
1475.000000	147.491226	1.880214	198964.600653	6.260000
1476.000000	147.591218	1.880110	198939.408679	6.260000
1477.000000	147.691171	1.880319	198989.792628	6.260000
1478.000000	147.791212	1.879796	198863.832755	6.260000
1479.000000	147.891138	1.879378	198763.064857	6.260000
1480.000000	147.991157	1.880319	198989.792628	6.260000
1481.000000	148.091173	1.879901	198889.024730	6.260000
1482.000000	148.191175	1.879483	198788.256832	6.260000
1483.000000	148.291123	1.879587	198813.448806	6.260000
1484.000000	148.391077	1.879483	198788.256832	6.260000
1485.000000	148.491084	1.878751	198611.913010	6.260000
1486.000000	148.591165	1.879692	198838.640781	6.260000
1487.000000	148.691126	1.879796	198863.832755	6.260000
1488.000000	148.791033	1.878542	198561.529061	6.260000
1489.000000	148.891133	1.880110	198939.408679	6.260000
1490.000000	148.991085	1.879796	198863.832755	6.260000
1491.000000	149.091075	1.880005	198914.216704	6.260000
1492.000000	149.191143	1.879587	198813.448806	6.260000
1493.000000	149.291029	1.879483	198788.256832	6.260000
1494.000000	149.391162	1.879483	198788.256832	6.260000
1495.000000	149.491075	1.878856	198637.104984	6.260000
1496.000000	149.591074	1.879378	198763.064857	6.260000
1497.000000	149.691176	1.879274	198737.872883	6.260000
1498.000000	149.791069	1.879796	198863.832755	6.260000
1499.000000	149.891012	1.879483	198788.256832	6.260000
1500.000000	149.991080	1.879378	198763.064857	6.280000
1501.000000	150.091040	1.878856	198637.104984	6.300000
1502.000000	150.190973	1.879483	198788.256832	6.330000
1503.000000	150.291000	1.879483	198788.256832	6.370000
1504.000000	150.390945	1.879378	198763.064857	6.400000
1505.000000	150.490930	1.879169	198712.680908	6.420000
1506.000000	150.591011	1.879483	198788.256832	6.420000
1507.000000	150.691015	1.879796	198863.832755	6.430000
1508.000000	150.790961	1.879483	198788.256832	6.430000
1509.000000	150.891012	1.879692	198838.640781	6.430000
1510.000000	150.991087	1.878751	198611.913010	6.430000
1511.000000	151.091011	1.879378	198763.064857	6.430000
1512.000000	151.191012	1.879169	198712.680908	6.430000
1513.000000	151.290976	1.879274	198737.872883	6.430000
1514.000000	151.390932	1.878542	198561.529061	6.430000
1515.000000	151.490970	1.878960	198662.296959	6.430000
1516.000000	151.590972	1.879169	198712.680908	6.430000
1517.000000	151.690961	1.879483	198788.256832	6.430000
1518.000000	151.790976	1.879483	198788.256832	6.430000
1519.000000	151.890959	1.879483	198788.256832	6.430000
1520.000000	151.990864	1.879065	198687.488934	6.430000
1521.000000	152.090901	1.879274	198737.872883	6.430000
1522.000000	152.190910	1.878751	198611.913010	6.430000
1523.000000	152.290896	1.878438	198536.337086	6.430000
1524.000000	152.390952	1.879692	198838.640781	6.430000
1525.000000	152.490936	1.878647	198586.721035	6.430000
1526.000000	152.590869	1.879274	198737.872883	6.430000
1527.000000	152.690839	1.879587	198813.448806	6.430000
1528.000000	152.790830	1.879169	198712.680908	6.430000
1529.000000	152.890824	1.879483	198788.256832	6.430000
1530.000000	152.990821	1.879065	198687.488934	6.430000
1531.000000	153.090856	1.879065	198687.488934	6.430000
1532.000000	153.190865	1.878960	198662.296959	6.430000
1533.000000	153.290897	1.879378	198763.064857	6.430000
1534.000000	153.390787	1.879378	198763.064857	6.430000
1535.000000	153.490837	1.878960	198662.296959	6.430000
1536.000000	153.590820	1.878647	198586.721035	6.430000
1537.000000	153.690831	1.879692	198838.640781	6.430000
1538.000000	153.790807	1.879274	198737.872883	6.430000
1539.000000	153.890759	1.879065	198687.488934	6.430000
1540.000000	153.990789	1.879378	198763.064857	6.430000
1541.000000	154.090839	1.879378	198763.064857	6.430000
1542.000000	154.190766	1.880110	198939.408679	6.430000
1543.000000	154.290781	1.879796	198863.832755	6.430000
1544.000000	154.390845	1.879796	198863.832755	6.430000
1545.000000	154.490818	1.879378	198763.064857	6.430000
1546.000000	154.590762	1.879378	198763.064857	6.430000
1547.000000	154.690733	1.879169	198712.680908	6.430000
1548.000000	154.790800	1.879692	198838.640781	6.430000
1549.000000	154.890731	1.879274	198737.872883	6.430000
1550.000000	154.990793	1.879483	198788.256832	6.430000
1551.000000	155.090740	1.879065	198687.488934	6.430000
1552.000000	155.190761	1.878960	198662.296959	6.430000
1553.000000	155.290716	1.879378	198763.064857	6.430000
1554.000000	155.390761	1.879169	198712.680908	6.430000
1555.000000	155.490654	1.878542	198561.529061	6.430000
1556.000000	155.590710	1.879587	198813.448806	6.430000
1557.000000	155.690664	1.878124	198460.761163	6.430000
1558.000000	155.790687	1.878856	198637.104984	6.430000
1559.000000	155.890613	1.879587	198813.448806	6.430000
1560.000000	155.990732	1.878438	198536.337086	6.430000
1561.000000	156.090724	1.879065	198687.488934	6.430000
1562.000000	156.190657	1.878856	198637.104984	6.430000
1563.000000	156.290712	1.878960	198662.296959	6.430000
1564.000000	156.390611	1.878960	198662.296959	6.430000
1565.000000	156.490669	1.878438	198536.337086	6.430000
1566.000000	156.590602	1.879483	198788.256832	6.430000
1567.000000	156.690723	1.878438	198536.337086	6.430000
1568.000000	156.790662	1.878960	198662.296959	6.430000
1569.000000	156.890585	1.878229	198485.953137	6.430000
1570.000000	156.990579	1.879169	198712.680908	6.430000
1571.000000	157.090630	1.878647	198586.721035	6.430000
1572.000000	157.190519	1.879378	198763.064857	6.430000
1573.000000	157.290615	1.879065	198687.488934	6.430000
1574.000000	157.390512	1.879065	198687.488934	6.430000
1575.000000	157.490597	1.879274	198737.872883	6.430000
1576.000000	157.590607	1.878751	198611.913010	6.430000
1577.000000	157.690627	1.878542	198561.529061	6.430000
1578.000000	157.790580	1.878751	198611.913010	6.430000
1579.000000	157.890575	1.879169	198712.680908	6.430000
1580.000000	157.990581	1.878542	198561.529061	6.430000
1581.000000	158.090587	1.878751	198611.913010	6.430000
1582.000000	158.190531	1.879483	198788.256832	6.440000
1583.000000	158.290603	1.878856	198637.104984	6.440000
1584.000000	158.390497	1.878438	198536.337086	6.440000
1585.000000	158.490570	1.879274	198737.872883	6.440000
1586.000000	158.590504	1.879483	198788.256832	6.440000
1587.000000	158.690554	1.878647	198586.721035	6.440000
1588.000000	158.790523	1.879692	198838.640781	6.440000
1589.000000	158.890525	1.878751	198611.913010	6.440000
1590.000000	158.990416	1.879169	198712.680908	6.440000
1591.000000	159.090408	1.878020	198435.569188	6.440000
1592.000000	159.190517	1.878751	198611.913010	6.440000
1593.000000	159.290505	1.879065	198687.488934	6.440000
1594.000000	159.390463	1.878960	198662.296959	6.440000
1595.000000	159.490492	1.878438	198536.337086	6.440000
1596.000000	159.590491	1.878542	198561.529061	6.440000
1597.000000	159.690475	1.878856	198637.104984	6.440000
1598.000000	159.790466	1.878229	198485.953137	6.440000
1599.000000	159.890466	1.878751	198611.913010	6.450000
1600.000000	159.990501	1.878647	198586.721035	6.450000
1601.000000	160.090427	1.878542	198561.529061	6.450000
1602.000000	160.190422	1.878229	198485.953137	6.450000
1603.000000	160.290451	1.877915	198410.377214	6.450000
1604.000000	160.390452	1.878333	198511.145112	6.450000
1605.000000	160.490433	1.878542	198561.529061	6.450000
1606.000000	160.590373	1.878856	198637.104984	6.450000
1607.000000	160.690359	1.878124	198460.761163	6.450000
1608.000000	160.790389	1.879065	198687.488934	6.450000
1609.000000	160.890432	1.878124	198460.761163	6.450000
1610.000000	160.990393	1.878751	198611.913010	6.450000
1611.000000	161.090410	1.878960	198662.296959	6.450000
1612.000000	161.190344	1.878647	198586.721035	6.450000
1613.000000	161.290365	1.878020	198435.569188	6.450000
1614.000000	161.390388	1.879483	198788.256832	6.450000
1615.000000	161.490340	1.877497	198309.609315	6.460000
1616.000000	161.590362	1.877706	198359.993265	6.460000
1617.000000	161.690312	1.878333	198511.145112	6.460000
1618.000000	161.790363	1.877497	198309.609315	6.460000
1619.000000	161.890336	1.878124	198460.761163	6.460000
1620.000000	161.990286	1.878124	198460.761163	6.460000
1621.000000	162.090421	1.878438	198536.337086	6.460000
1622.000000	162.190516	1.877706	198359.993265	6.460000
1623.000000	162.290470	1.878960	198662.296959	6.460000
1624.000000	162.390444	1.878647	198586.721035	6.460000
1625.000000	162.490493	1.878438	198536.337086	6.460000
1626.000000	162.590486	1.878438	198536.337086	6.460000
1627.000000	162.690483	1.878124	198460.761163	6.460000
1628.000000	162.790489	1.877811	198385.185239	6.460000
1629.000000	162.890466	1.878542	198561.529061	6.460000
1630.000000	162.990401	1.878020	198435.569188	6.460000
1631.000000	163.090489	1.878542	198561.529061	6.460000
1632.000000	163.190448	1.878542	198561.529061	6.470000
1633.000000	163.290444	1.877602	198334.801290	6.470000
1634.000000	163.390440	1.878438	198536.337086	6.470000
1635.000000	163.490429	1.878542	198561.529061	6.470000
1636.000000	163.590431	1.877602	198334.801290	6.470000
1637.000000	163.690419	1.877915	198410.377214	6.470000
1638.000000	163.790439	1.878647	198586.721035	6.470000
1639.000000	163.890410	1.878647	198586.721035	6.470000
1640.000000	163.990428	1.878960	198662.296959	6.470000
1641.000000	164.090323	1.878751	198611.913010	6.470000
1642.000000	164.190377	1.877915	198410.377214	6.470000
1643.000000	164.290358	1.878438	198536.337086	6.470000
1644.000000	164.390302	1.878647	198586.721035	6.470000
1645.000000	164.490420	1.878124	198460.761163	6.470000
1646.000000	164.590373	1.877811	198385.185239	6.470000
1647.000000	164.690369	1.877706	198359.993265	6.470000
1648.000000	164.790350	1.878856	198637.104984	6.470000
1649.000000	164.890175	1.878020	198435.569188	6.470000
1650.000000	164.990359	1.878333	198511.145112	6.470000
1651.000000	165.090351	1.878229	198485.953137	6.510000
1652.000000	165.190324	1.878020	198435.569188	6.530000
1653.000000	165.290364	1.878438	198536.337086	6.550000
1654.000000	165.390306	1.878333	198511.145112	6.560000
1655.000000	165.490357	1.878751	198611.913010	6.560000
1656.000000	165.590340	1.878229	198485.953137	6.580000
1657.000000	165.690292	1.878333	198511.145112	6.590000
1658.000000	165.790301	1.878647	198586.721035	6.590000
1659.000000	165.890264	1.878020	198435.569188	6.590000
1660.000000	165.990286	1.877811	198385.185239	6.600000
1661.000000	166.090311	1.877602	198334.801290	6.600000
1662.000000	166.190256	1.877602	198334.801290	6.600000
1663.000000	166.290335	1.878960	198662.296959	6.600000
1664.000000	166.390121	1.877288	198259.225366	6.600000
1665.000000	166.490255	1.877811	198385.185239	6.600000
1666.000000	166.590261	1.877915	198410.377214	6.600000
1667.000000	166.690224	1.878229	198485.953137	6.600000
1668.000000	166.790070	1.878020	198435.569188	6.600000
1669.000000	166.890249	1.877811	198385.185239	6.600000
1670.000000	166.990219	1.877602	198334.801290	6.600000
1671.000000	167.090224	1.878124	198460.761163	6.600000
1672.000000	167.190154	1.878751	198611.913010	6.600000
1673.000000	167.290084	1.878124	198460.761163	6.600000
1674.000000	167.390170	1.878124	198460.761163	6.600000
1675.000000	167.490090	1.878229	198485.953137	6.600000
1676.000000	167.590186	1.878751	198611.913010	6.600000
1677.000000	167.690201	1.878647	198586.721035	6.600000
1678.000000	167.790118	1.878333	198511.145112	6.610000
1679.000000	167.890165	1.878333	198511.145112	6.610000
1680.000000	167.990147	1.878542	198561.529061	6.610000
1681.000000	168.090008	1.879587	198813.448806	6.610000
1682.000000	168.190023	1.878438	198536.337086	6.610000
1683.000000	168.290118	1.878020	198435.569188	6.610000
1684.000000	168.390067	1.877811	198385.185239	6.610000
1685.000000	168.490121	1.878856	198637.104984	6.610000
1686.000000	168.590036	1.879065	198687.488934	6.610000
1687.000000	168.690140	1.878542	198561.529061	6.610000
1688.000000	168.790109	1.877811	198385.185239	6.610000
1689.000000	168.890079	1.877915	198410.377214	6.610000
1690.000000	168.990050	1.878542	198561.529061	6.610000
1691.000000	169.090039	1.878229	198485.953137	6.610000
1692.000000	169.190029	1.878020	198435.569188	6.610000
1693.000000	169.290031	1.877706	198359.993265	6.610000
1694.000000	169.389999	1.878647	198586.721035	6.610000
1695.000000	169.489962	1.878542	198561.529061	6.610000
1696.000000	169.589923	1.878333	198511.145112	6.610000
1697.000000	169.689865	1.878960	198662.296959	6.610000
1698.000000	169.789911	1.878020	198435.569188	6.610000
1699.000000	169.889984	1.878542	198561.529061	6.610000
1700.000000	169.990044	1.878124	198460.761163	6.610000
1701.000000	170.090008	1.877811	198385.185239	6.610000
1702.000000	170.189984	1.878333	198511.145112	6.610000
1703.000000	170.290027	1.878229	198485.953137	6.610000
1704.000000	170.389848	1.878960	198662.296959	6.610000
1705.000000	170.490021	1.878542	198561.529061	6.610000
1706.000000	170.590048	1.878438	198536.337086	6.610000
1707.000000	170.690041	1.877706	198359.993265	6.610000
1708.000000	170.790004	1.877915	198410.377214	6.610000
1709.000000	170.890001	1.878020	198435.569188	6.610000
1710.000000	170.989992	1.877811	198385.185239	6.610000
1711.000000	171.089796	1.878647	198586.721035	6.610000
1712.000000	171.189817	1.877811	198385.185239	6.610000
1713.000000	171.289830	1.878751	198611.913010	6.610000
1714.000000	171.389814	1.877915	198410.377214	6.610000
1715.000000	171.489929	1.878542	198561.529061	6.610000
1716.000000	171.589799	1.878020	198435.569188	6.610000
1717.000000	171.689944	1.877497	198309.609315	6.610000
1718.000000	171.789943	1.878229	198485.953137	6.610000
1719.000000	171.889937	1.878751	198611.913010	6.610000
1720.000000	171.989905	1.877811	198385.185239	6.610000
1721.000000	172.089940	1.877915	198410.377214	6.610000
1722.000000	172.189859	1.878020	198435.569188	6.610000
1723.000000	172.289923	1.878020	198435.569188	6.610000
1724.000000	172.389694	1.878542	198561.529061	6.610000
1725.000000	172.489908	1.877915	198410.377214	6.610000
1726.000000	172.589807	1.878751	198611.913010	6.610000
1727.000000	172.689892	1.877915	198410.377214	6.610000
1728.000000	172.789830	1.877706	198359.993265	6.610000
1729.000000	172.889822	1.877915	198410.377214	6.610000
1730.000000	172.989889	1.877706	198359.993265	6.610000
1731.000000	173.089876	1.877497	198309.609315	6.610000
1732.000000	173.189806	1.877288	198259.225366	6.610000
1733.000000	173.289790	1.877392	198284.417341	6.610000
1734.000000	173.389808	1.876870	198158.457468	6.610000
1735.000000	173.489853	1.878020	198435.569188	6.610000
1736.000000	173.589830	1.877497	198309.609315	6.610000
1737.000000	173.689842	1.878020	198435.569188	6.610000
1738.000000	173.789823	1.878229	198485.953137	6.610000
1739.000000	173.889823	1.877602	198334.801290	6.610000
1740.000000	173.989814	1.878124	198460.761163	6.610000
1741.000000	174.089810	1.877183	198234.033392	6.610000
1742.000000	174.189751	1.877602	198334.801290	6.610000
1743.000000	174.289789	1.878229	198485.953137	6.610000
1744.000000	174.389583	1.878124	198460.761163	6.610000
1745.000000	174.489771	1.877811	198385.185239	6.610000
1746.000000	174.589794	1.877915	198410.377214	6.610000
1747.000000	174.689826	1.877915	198410.377214	6.610000
1748.000000	174.789769	1.878229	198485.953137	6.610000
1749.000000	174.889759	1.878020	198435.569188	6.620000
1750.000000	174.989752	1.878020	198435.569188	6.620000
1751.000000	175.089759	1.877706	198359.993265	6.620000
1752.000000	175.189696	1.877497	198309.609315	6.620000
1753.000000	175.289739	1.878124	198460.761163	6.620000
1754.000000	175.389727	1.878124	198460.761163	6.620000
1755.000000	175.489666	1.876974	198183.649443	6.620000
1756.000000	175.589723	1.878229	198485.953137	6.620000
1757.000000	175.689673	1.877392	198284.417341	6.620000
1758.000000	175.789711	1.877706	198359.993265	6.650000
1759.000000	175.889713	1.876870	198158.457468	6.670000
1760.000000	175.989726	1.877706	198359.993265	6.680000
1761.000000	176.089696	1.877392	198284.417341	6.700000
1762.000000	176.189634	1.878020	198435.569188	6.720000
1763.000000	176.289585	1.877811	198385.185239	6.720000
1764.000000	176.389573	1.878647	198586.721035	6.720000
1765.000000	176.489657	1.877706	198359.993265	6.720000
1766.000000	176.589669	1.878020	198435.569188	6.720000
1767.000000	176.689609	1.877497	198309.609315	6.730000
1768.000000	176.789638	1.877183	198234.033392	6.730000
1769.000000	176.889680	1.878124	198460.761163	6.730000
1770.000000	176.989626	1.877497	198309.609315	6.730000
1771.000000	177.089622	1.877602	198334.801290	6.730000
1772.000000	177.189556	1.877079	198208.841417	6.730000
1773.000000	177.289610	1.877183	198234.033392	6.730000
1774.000000	177.389610	1.877602	198334.801290	6.730000
1775.000000	177.489602	1.876765	198133.265494	6.730000
1776.000000	177.589603	1.877602	198334.801290	6.730000
1777.000000	177.689467	1.877079	198208.841417	6.730000
1778.000000	177.789579	1.877288	198259.225366	6.730000
1779.000000	177.889570	1.877497	198309.609315	6.730000
1780.000000	177.989459	1.878229	198485.953137	6.730000
1781.000000	178.089571	1.877706	198359.993265	6.730000
1782.000000	178.189504	1.877392	198284.417341	6.730000
1783.000000	178.289560	1.877183	198234.033392	6.730000
1784.000000	178.389387	1.876974	198183.649443	6.730000
1785.000000	178.489485	1.876974	198183.649443	6.730000
1786.000000	178.589542	1.877392	198284.417341	6.730000
1787.000000	178.689521	1.877706	198359.993265	6.730000
1788.000000	178.789550	1.877392	198284.417341	6.730000
1789.000000	178.889554	1.876661	198108.073519	6.730000
1790.000000	178.989507	1.877602	198334.801290	6.730000
1791.000000	179.089509	1.876974	198183.649443	6.730000
1792.000000	179.189449	1.876974	198183.649443	6.730000
1793.000000	179.289490	1.876556	198082.881545	6.730000
1794.000000	179.389442	1.876870	198158.457468	6.730000
1795.000000	179.489483	1.876556	198082.881545	6.730000
1796.000000	179.589476	1.876765	198133.265494	6.730000
1797.000000	179.689474	1.877183	198234.033392	6.730000
1798.000000	179.789460	1.877183	198234.033392	6.730000
1799.000000	179.889419	1.877915	198410.377214	6.730000
1800.000000	179.989445	1.876452	198057.689570	6.730000
